# phi(deg) q2(GeV2) xb t(GeV2) Eb(GeV) A sigA
5.47938 1.18516 0.102814 -0.149945 10.6041 -0.00401505 0.0153526
16.32953 1.18586 0.099858 -0.148208 10.6041 0.063576 0.0164779
26.94323 1.18194 0.0947776 -0.15012 10.6041 0.0983536 0.0173404
37.68498 1.17988 0.0888319 -0.151467 10.6041 0.145918 0.0168122
48.52907 1.17857 0.0824138 -0.152116 10.6041 0.165289 0.0183801
58.72015 1.16788 0.0782282 -0.150373 10.6041 0.226742 0.0220662
69.42530 1.15671 0.0774572 -0.144887 10.6041 0.170445 0.0358811
80.05023 1.1555 0.082693 -0.140749 10.6041 0.201054 0.0512921
93.92096 1.15122 0.104445 -0.150041 10.6041 0.196896 0.0689447
106.08600 1.19062 0.107031 -0.155099 10.6041 0.19516 0.0806462
117.60474 1.1814 0.102218 -0.155653 10.6041 0.22057 0.058886
127.87215 1.17967 0.101209 -0.160727 10.6041 0.102624 0.0593524
138.88783 1.15607 0.100587 -0.163499 10.6041 0.153486 0.0460841
149.45661 1.15556 0.0983155 -0.163251 10.6041 0.197954 0.0476778
160.05977 1.16136 0.0985263 -0.165462 10.6041 0.0944589 0.0478898
170.68585 1.16555 0.100614 -0.168255 10.6041 -0.000287466 0.0581132
181.37265 1.1525 0.0976829 -0.16482 10.6041 0.051989 0.064546
192.60492 1.16772 0.0992419 -0.16385 10.6041 -0.093807 0.0695206
203.27970 1.17179 0.10016 -0.161178 10.6041 -0.00275131 0.0675397
213.91952 1.16174 0.104059 -0.162129 10.6041 -0.181496 0.0858614
230.53358 1.17603 0.10936 -0.162285 10.6041 -0.434516 0.101771
274.30412 1.14054 0.0814467 -0.154093 10.6041 -0.396749 0.129083
287.03581 1.15723 0.076309 -0.15134 10.6041 -0.138658 0.0578388
297.58110 1.15929 0.0768801 -0.151423 10.6041 -0.209361 0.0319571
308.07769 1.1773 0.0807721 -0.152208 10.6041 -0.21347 0.0210983
318.63501 1.182 0.0864401 -0.152337 10.6041 -0.153312 0.0188983
329.21009 1.18075 0.0924334 -0.151478 10.6041 -0.0964044 0.017923
339.94159 1.18546 0.0980345 -0.15162 10.6041 -0.152948 0.0189522
352.76037 1.18639 0.10224 -0.149888 10.6041 -0.0428874 0.0157058
5.54739 1.17135 0.172113 -0.16118 10.6041 0.00788785 0.0404457
16.05388 1.17569 0.170861 -0.161934 10.6041 0.111085 0.0357623
26.65268 1.20466 0.167539 -0.154625 10.6041 0.13975 0.041485
37.47860 1.20942 0.167812 -0.155138 10.6041 0.253767 0.0494776
48.03014 1.20287 0.169978 -0.154738 10.6041 0.245527 0.071006
61.41248 1.20371 0.165568 -0.149449 10.6041 0.368885 0.0662578
73.97916 1.22491 0.161365 -0.157696 10.6041 0.186504 0.101813
86.21296 1.21673 0.164171 -0.164611 10.6041 0.262475 0.0815877
98.98476 1.21177 0.16202 -0.175235 10.6041 0.369252 0.0845168
109.73517 1.20596 0.164321 -0.180005 10.6041 0.278611 0.0790118
122.39410 1.18607 0.156333 -0.178415 10.6041 0.191706 0.0953673
136.62121 1.21635 0.152567 -0.181843 10.6041 0.14783 0.0808019
151.65047 1.21138 0.148236 -0.181592 10.6041 0.379569 0.063099
163.16635 1.20784 0.145264 -0.186569 10.6041 -0.00486285 0.106568
180.45191 1.21513 0.144921 -0.182279 10.6041 0.0432002 0.0961048
202.08966 1.19779 0.148437 -0.1773 10.6041 0.00926254 0.0996819
221.59200 1.2081 0.152669 -0.180818 10.6041 -0.0338408 0.0974044
246.25440 1.21216 0.165069 -0.175805 10.6041 -0.111513 0.114352
273.90247 1.19314 0.173185 -0.167702 10.6041 -0.404022 0.129525
320.08345 1.20471 0.178174 -0.139439 10.6041 -0.118507 0.100433
337.31630 1.19629 0.174145 -0.148333 10.6041 -0.0804759 0.0734451
351.80984 1.18728 0.173261 -0.1631 10.6041 -0.0738377 0.0315014
5.18469 1.21833 0.240322 -0.192415 10.6041 0.0628241 0.0760889
16.02975 1.22617 0.236936 -0.194124 10.6041 0.0492491 0.0771939
26.65898 1.22956 0.239022 -0.18361 10.6041 0.297452 0.0649485
38.55565 1.21396 0.238002 -0.18166 10.6041 0.235944 0.0843466
59.39796 1.23477 0.236426 -0.184638 10.6041 0.285763 0.0914843
89.88562 1.2406 0.235332 -0.203708 10.6041 0.0130705 0.156915
272.03177 1.2347 0.244191 -0.196271 10.6041 0.136644 0.170144
312.71807 1.24445 0.239975 -0.173361 10.6041 -0.106074 0.138749
335.31897 1.24226 0.239658 -0.187564 10.6041 -0.163488 0.119169
351.29188 1.22726 0.238182 -0.189811 10.6041 -0.082403 0.0707024
5.57880 1.16234 0.118025 -0.264322 10.6041 0.0584737 0.0226203
16.60844 1.17396 0.114201 -0.288485 10.6041 0.0973894 0.0187394
27.26878 1.18327 0.102673 -0.294449 10.6041 0.12513 0.0155078
37.97576 1.17841 0.0894498 -0.301005 10.6041 0.159234 0.0140607
48.05334 1.17243 0.0807988 -0.290144 10.6041 0.151797 0.0160885
58.24288 1.16058 0.077822 -0.27682 10.6041 0.243558 0.0293341
68.98355 1.15752 0.0794614 -0.266789 10.6041 0.0223399 0.090008
95.19579 1.17993 0.109139 -0.269775 10.6041 -0.00221551 0.104319
113.81348 1.17775 0.105193 -0.282053 10.6041 0.281879 0.0738019
124.72432 1.19032 0.0990637 -0.282608 10.6041 0.0733999 0.0624361
135.39050 1.17825 0.0991781 -0.287712 10.6041 0.0198674 0.056601
145.74958 1.16553 0.0977675 -0.286829 10.6041 0.0534143 0.0465421
156.90621 1.16364 0.0980207 -0.290999 10.6041 0.0682335 0.0431187
167.17132 1.16575 0.0990926 -0.293541 10.6041 -0.0629471 0.0442703
178.06841 1.16598 0.0974128 -0.292064 10.6041 -0.0157314 0.0517939
188.69162 1.17028 0.100705 -0.299482 10.6041 -0.141388 0.0649158
199.44546 1.15603 0.102638 -0.287217 10.6041 -0.0911124 0.0758307
210.54938 1.16443 0.105614 -0.29216 10.6041 -0.0686843 0.0806255
220.91419 1.15963 0.10888 -0.292217 10.6041 -0.0931732 0.101286
235.78245 1.18945 0.100799 -0.317961 10.6041 -0.0423303 0.119326
250.48970 1.1914 0.0938232 -0.313982 10.6041 0.00519163 0.0854588
260.98399 1.17674 0.0987415 -0.318627 10.6041 -0.328399 0.0790022
271.75446 1.16942 0.102587 -0.306225 10.6041 -0.199469 0.0719668
282.65383 1.15107 0.0992428 -0.301803 10.6041 -0.326399 0.0710539
294.15940 1.15937 0.0854947 -0.273451 10.6041 -0.187768 0.0500894
304.85423 1.16632 0.0812401 -0.27661 10.6041 -0.192162 0.026398
315.20242 1.17431 0.0835805 -0.291959 10.6041 -0.13929 0.0178284
325.68640 1.1806 0.0941907 -0.297287 10.6041 -0.171694 0.0162628
336.30044 1.18051 0.107313 -0.295745 10.6041 -0.136432 0.0172189
349.75521 1.16429 0.11663 -0.275533 10.6041 -0.0298932 0.0168785
5.22237 1.23047 0.150329 -0.336353 10.6041 0.066987 0.0306045
14.86419 1.2435 0.154073 -0.326971 10.6041 0.112146 0.0454023
37.03061 1.23258 0.17595 -0.309014 10.6041 0.2223 0.0765077
72.85273 1.19053 0.163564 -0.323208 10.6041 0.0895558 0.123115
100.36502 1.21836 0.166943 -0.303842 10.6041 0.133169 0.117604
112.87498 1.18751 0.160472 -0.305723 10.6041 0.229122 0.103194
123.93249 1.19514 0.160234 -0.30405 10.6041 0.151947 0.111326
135.42545 1.21379 0.158525 -0.307527 10.6041 0.0154519 0.112687
146.12830 1.21661 0.153711 -0.310683 10.6041 0.023972 0.0854336
156.63234 1.22663 0.153274 -0.311731 10.6041 0.173589 0.084495
166.87052 1.20748 0.151686 -0.315304 10.6041 -0.180139 0.100208
177.90168 1.20037 0.153405 -0.322646 10.6041 0.0458699 0.0841583
188.99815 1.20439 0.153378 -0.309154 10.6041 -0.0561159 0.107109
200.08832 1.18909 0.154762 -0.320523 10.6041 -0.0842423 0.0887338
210.31619 1.2181 0.155232 -0.309865 10.6041 0.107171 0.0969639
222.98085 1.1904 0.161021 -0.314325 10.6041 -0.0153734 0.109757
241.35618 1.20404 0.160814 -0.312265 10.6041 0.0282101 0.125664
262.55046 1.19125 0.161629 -0.350276 10.6041 -0.231368 0.14966
279.51116 1.19104 0.159915 -0.342031 10.6041 -0.291731 0.125978
297.75299 1.18958 0.157857 -0.32817 10.6041 -0.333396 0.107416
311.78702 1.18489 0.154655 -0.348686 10.6041 -0.308636 0.0955393
327.05405 1.19651 0.153523 -0.369079 10.6041 -0.279221 0.086342
352.40858 1.23062 0.147092 -0.342307 10.6041 -0.0272579 0.0277363
5.19372 1.2123 0.234882 -0.330858 10.6041 -0.0168883 0.0886718
19.03584 1.24987 0.241202 -0.320014 10.6041 0.241084 0.0755443
48.52483 1.26973 0.248088 -0.326206 10.6041 0.108479 0.157647
115.64122 1.19305 0.231327 -0.355053 10.6041 0.103166 0.197125
264.15131 1.2464 0.242437 -0.359478 10.6041 -0.35183 0.296074
303.85671 1.20145 0.23765 -0.376674 10.6041 -0.00844682 0.150572
349.93111 1.24102 0.240991 -0.330393 10.6041 -0.067066 0.0715668
14.86287 1.07899 0.100203 -0.677204 10.6041 0.0184197 0.0568613
24.13642 1.15545 0.101123 -0.605954 10.6041 0.107098 0.0165088
33.87779 1.1817 0.0884375 -0.539581 10.6041 0.0659403 0.0162303
43.91939 1.17953 0.0835573 -0.496122 10.6041 0.0887407 0.0298377
55.03214 1.14377 0.0963899 -0.521142 10.6041 0.236076 0.051841
66.39951 1.14956 0.107063 -0.569869 10.6041 0.243359 0.0646125
77.81741 1.17611 0.103671 -0.579818 10.6041 0.285523 0.0730006
102.69581 1.15759 0.103033 -0.595304 10.6041 -0.00907658 0.11479
125.31217 1.15934 0.0987094 -0.519428 10.6041 -0.049887 0.103501
139.17947 1.15978 0.0958013 -0.539456 10.6041 0.0369868 0.0942393
149.34661 1.17395 0.0962247 -0.546406 10.6041 0.189639 0.0622003
160.34568 1.16797 0.0992283 -0.547964 10.6041 0.0178736 0.0654931
170.76205 1.16625 0.0979716 -0.550906 10.6041 -0.166659 0.0746628
181.79378 1.16517 0.0971619 -0.565623 10.6041 0.280896 0.0608324
192.58544 1.16145 0.103037 -0.560152 10.6041 -0.0145401 0.111188
204.77855 1.17117 0.105033 -0.558237 10.6041 -0.0101048 0.097186
225.53624 1.17547 0.100762 -0.55511 10.6041 -0.15438 0.104113
245.22193 1.16017 0.0935493 -0.553584 10.6041 -0.102152 0.102915
257.35316 1.17736 0.0961437 -0.559525 10.6041 -0.156739 0.0912193
268.53558 1.16435 0.0978248 -0.559882 10.6041 -0.0585814 0.0782172
279.34443 1.1616 0.102275 -0.560881 10.6041 -0.0775793 0.0699015
289.64048 1.14741 0.105993 -0.570375 10.6041 -0.109989 0.0672654
300.84008 1.15525 0.102085 -0.527525 10.6041 -0.174642 0.0730375
312.36398 1.17527 0.083122 -0.49437 10.6041 -0.125972 0.0468792
322.87432 1.18182 0.0845107 -0.523626 10.6041 -0.138529 0.0216395
332.91827 1.17039 0.097283 -0.590121 10.6041 -0.0688859 0.015368
341.21470 1.12178 0.107828 -0.636108 10.6041 -0.100785 0.0286473
5.96695 1.22913 0.160428 -0.497658 10.6041 0.0192736 0.0364247
15.85179 1.22615 0.146828 -0.575049 10.6041 0.0503379 0.0305856
26.38774 1.21785 0.156225 -0.612999 10.6041 0.158211 0.0743348
38.33128 1.13591 0.161458 -0.631304 10.6041 -0.0543047 0.0751093
48.38457 1.18005 0.159885 -0.626027 10.6041 0.171522 0.0642351
58.62218 1.20597 0.157903 -0.614117 10.6041 0.23415 0.0713848
71.47247 1.18866 0.156862 -0.609171 10.6041 0.228971 0.0949233
95.00557 1.19865 0.166412 -0.606874 10.6041 0.139941 0.125954
121.97985 1.17526 0.167617 -0.557114 10.6041 -0.0774756 0.128495
141.77325 1.1982 0.164115 -0.5641 10.6041 0.291823 0.0813648
156.29028 1.20387 0.159002 -0.55621 10.6041 0.0315649 0.110745
167.42457 1.22755 0.159884 -0.574394 10.6041 -0.0188872 0.115662
178.71241 1.21566 0.15774 -0.575641 10.6041 -0.028082 0.118077
190.70900 1.20041 0.167692 -0.594555 10.6041 -0.160986 0.109496
204.89658 1.19744 0.16505 -0.588704 10.6041 0.100387 0.0951628
220.36129 1.19243 0.158671 -0.545768 10.6041 0.128846 0.103068
248.09932 1.19505 0.165294 -0.602608 10.6041 0.144881 0.137362
266.87687 1.19181 0.161085 -0.60654 10.6041 0.198461 0.102488
278.66719 1.18063 0.164418 -0.612102 10.6041 -0.225531 0.142514
290.19911 1.21705 0.160298 -0.593382 10.6041 -0.210363 0.123943
300.66018 1.20037 0.161484 -0.577721 10.6041 -0.0701404 0.0863065
311.37048 1.19264 0.159555 -0.559169 10.6041 -0.142176 0.0764416
321.77310 1.18503 0.17074 -0.556745 10.6041 -0.26477 0.0679061
333.96392 1.23589 0.160564 -0.581078 10.6041 -0.0884502 0.0664479
344.14996 1.21776 0.146884 -0.580397 10.6041 -0.0709303 0.0267092
353.77508 1.22674 0.163489 -0.506383 10.6041 -0.00569041 0.0362944
13.56816 1.24216 0.23729 -0.614597 10.6041 0.0690111 0.0807899
52.36811 1.19352 0.227067 -0.626021 10.6041 -0.0101473 0.173151
271.60262 1.22956 0.239253 -0.657794 10.6041 -0.138076 0.20933
307.12830 1.22461 0.237553 -0.629447 10.6041 -0.294677 0.158553
330.75364 1.22502 0.233944 -0.669069 10.6041 -0.122697 0.109817
5.63519 1.16138 0.0915199 -1.0086 10.6041 0.0744695 0.0220526
15.80762 1.17489 0.0946136 -0.93586 10.6041 -0.0100643 0.0274823
25.56286 1.2006 0.088328 -0.947211 10.6041 0.117237 0.0586395
48.93724 1.18971 0.104255 -1.01744 10.6041 -0.0662802 0.140575
81.80405 1.16412 0.0969952 -1.1011 10.6041 0.320182 0.0845165
117.70902 1.1571 0.100688 -1.37973 10.6041 0.151726 0.163511
155.59758 1.16513 0.09682 -1.05021 10.6041 0.118918 0.132329
185.65093 1.15437 0.0998131 -1.04696 10.6041 -0.0195084 0.120093
229.65581 1.15153 0.101001 -1.26326 10.6041 -0.408619 0.236788
263.84993 1.14439 0.0982814 -1.06927 10.6041 0.128651 0.120111
289.63761 1.17096 0.106922 -0.989553 10.6041 0.151543 0.0994825
328.52082 1.19637 0.0906071 -1.02756 10.6041 -0.206049 0.125064
341.04281 1.1889 0.0953786 -0.905977 10.6041 -0.0174061 0.0307074
352.24127 1.15655 0.0930728 -1.00144 10.6041 -0.0321333 0.0194224
9.42166 1.2477 0.15307 -1.0633 10.6041 -0.0499286 0.0519026
17.92894 1.25032 0.151802 -1.04026 10.6041 0.101795 0.0705833
42.08776 1.21036 0.171353 -1.04893 10.6041 -0.125322 0.105938
64.43541 1.18129 0.162531 -1.11257 10.6041 -0.111066 0.131021
163.41501 1.18985 0.162837 -1.13458 10.6041 0.0150266 0.127203
199.87747 1.22548 0.158404 -1.21649 10.6041 -0.204731 0.188634
235.79333 1.18359 0.16724 -1.08644 10.6041 0.296705 0.175919
272.61676 1.18044 0.158923 -1.11202 10.6041 -0.068472 0.192555
307.36894 1.22565 0.156269 -1.08396 10.6041 -0.0816408 0.166549
340.37589 1.24909 0.152429 -1.06795 10.6041 -0.030561 0.0673885
350.26171 1.23629 0.150607 -1.04361 10.6041 0.0350375 0.0464439
5.56356 1.55971 0.119462 -0.146889 10.6041 0.0192776 0.0258981
16.25476 1.56827 0.11794 -0.149001 10.6041 0.0742729 0.0231447
26.99668 1.57653 0.11477 -0.151686 10.6041 0.0847095 0.0214654
37.67232 1.5832 0.110147 -0.153927 10.6041 0.110276 0.0258141
48.17710 1.5741 0.104702 -0.156443 10.6041 0.193822 0.0272789
58.63822 1.55108 0.101216 -0.155785 10.6041 0.208435 0.0397022
69.13767 1.54144 0.100597 -0.15109 10.6041 0.020469 0.11428
91.45495 1.51495 0.115951 -0.152894 10.6041 0.374287 0.0610126
116.12995 1.55367 0.117481 -0.164445 10.6041 0.0208766 0.0888863
130.04939 1.55723 0.115671 -0.166858 10.6041 0.256696 0.0641645
144.33666 1.56462 0.114982 -0.168444 10.6041 0.255783 0.0670548
156.25361 1.55664 0.114019 -0.165339 10.6041 -0.0495801 0.0898187
169.00421 1.53337 0.113913 -0.167603 10.6041 0.159925 0.0769243
183.43244 1.55329 0.114349 -0.167102 10.6041 0.0147037 0.0940127
201.06579 1.55058 0.114898 -0.166278 10.6041 0.0969284 0.0770513
223.55495 1.54779 0.11812 -0.165738 10.6041 -0.521007 0.163603
291.07001 1.54481 0.0991286 -0.151087 10.6041 -0.302465 0.153381
301.25892 1.56007 0.101551 -0.153954 10.6041 -0.165468 0.0499925
311.73029 1.57386 0.104883 -0.15526 10.6041 -0.194213 0.0319679
322.09338 1.58258 0.110167 -0.155015 10.6041 -0.17687 0.0257489
332.87817 1.57685 0.114772 -0.155419 10.6041 -0.0843754 0.0247865
343.50195 1.56132 0.117903 -0.152581 10.6041 -0.120179 0.0271862
354.34804 1.55738 0.119291 -0.144884 10.6041 -0.0384128 0.0259585
5.47147 1.63274 0.157266 -0.174366 10.6041 0.0471181 0.0406104
15.85913 1.6201 0.163178 -0.170379 10.6041 0.0552729 0.0501996
26.92512 1.61072 0.173583 -0.168073 10.6041 0.168115 0.0513254
37.64831 1.59909 0.178931 -0.163998 10.6041 0.292582 0.0509047
48.43247 1.58336 0.173506 -0.160991 10.6041 0.267475 0.0672752
59.34869 1.59834 0.167641 -0.156846 10.6041 0.159411 0.0798073
69.83954 1.59633 0.165954 -0.159026 10.6041 0.36865 0.0586386
80.80939 1.59643 0.164307 -0.167376 10.6041 0.353226 0.0576213
93.38467 1.59559 0.164071 -0.170859 10.6041 0.447105 0.0506948
107.38089 1.59698 0.160328 -0.170612 10.6041 0.444565 0.056831
120.16243 1.61358 0.158144 -0.175888 10.6041 0.117028 0.102014
131.54595 1.59617 0.153608 -0.175412 10.6041 0.0778702 0.0854056
141.93597 1.60367 0.151876 -0.177274 10.6041 -0.144068 0.110288
153.33210 1.60254 0.151663 -0.179042 10.6041 0.0896505 0.100031
165.55501 1.59805 0.148978 -0.180247 10.6041 -0.144689 0.106023
181.83675 1.60966 0.150014 -0.176137 10.6041 -0.00925932 0.101214
199.44546 1.60322 0.150748 -0.179802 10.6041 -0.00935696 0.0982582
217.82996 1.60276 0.154199 -0.180942 10.6041 0.0414421 0.0988535
246.08938 1.58564 0.169035 -0.18185 10.6041 -0.166921 0.0932685
279.78847 1.60008 0.174855 -0.170263 10.6041 -0.477234 0.131936
317.80021 1.60913 0.182276 -0.148336 10.6041 -0.176149 0.0952751
333.38924 1.63872 0.16765 -0.163023 10.6041 -0.224156 0.0874888
343.97521 1.6423 0.159687 -0.166942 10.6041 -0.0713077 0.0568213
354.87688 1.62937 0.155567 -0.174111 10.6041 -0.036556 0.0429403
5.77146 1.61394 0.257403 -0.198368 10.6041 0.0294403 0.0686881
16.08625 1.60239 0.251207 -0.198664 10.6041 0.210652 0.0594872
26.78836 1.59686 0.251754 -0.18762 10.6041 0.24699 0.0663132
37.58523 1.60658 0.257214 -0.198159 10.6041 0.249776 0.0769121
49.82819 1.60843 0.254436 -0.203456 10.6041 0.308395 0.0849806
68.16422 1.59887 0.260095 -0.2029 10.6041 0.255218 0.0887917
92.43929 1.60827 0.241402 -0.202879 10.6041 0.30215 0.0876917
273.44239 1.62498 0.251732 -0.205709 10.6041 -0.290641 0.193335
308.30000 1.60223 0.267385 -0.192987 10.6041 -0.224031 0.131323
325.90928 1.59185 0.256447 -0.191418 10.6041 -0.145822 0.105071
336.95533 1.61232 0.256517 -0.190041 10.6041 -0.281233 0.102683
351.38470 1.61996 0.252511 -0.204015 10.6041 -0.0275351 0.0553009
5.95114 1.48328 0.125891 -0.241116 10.6041 -0.00345378 0.0674262
16.90919 1.51174 0.124172 -0.259521 10.6041 0.0941391 0.0440952
27.59777 1.54869 0.120064 -0.288331 10.6041 0.156746 0.0258791
37.93382 1.57597 0.112074 -0.300369 10.6041 0.179279 0.0201438
47.71392 1.56833 0.10452 -0.292301 10.6041 0.222575 0.0238946
58.32424 1.55214 0.100876 -0.281665 10.6041 0.360567 0.0578003
115.90822 1.57103 0.115145 -0.294277 10.6041 0.172105 0.0725925
131.25718 1.55165 0.1123 -0.293211 10.6041 0.0510688 0.105795
142.45507 1.54205 0.111974 -0.289436 10.6041 0.126266 0.0855284
153.05995 1.54085 0.111868 -0.301992 10.6041 0.052857 0.0858044
163.99599 1.55638 0.115283 -0.299706 10.6041 0.00338646 0.0845997
174.68223 1.53732 0.113641 -0.29859 10.6041 -0.22227 0.109174
184.61445 1.55494 0.114334 -0.299758 10.6041 0.00418913 0.0962704
201.39581 1.55532 0.114816 -0.28726 10.6041 -0.060967 0.111244
230.71349 1.56081 0.11403 -0.305551 10.6041 0.0768908 0.0951209
257.79262 1.55469 0.114531 -0.3198 10.6041 -0.180213 0.0948946
277.16776 1.52136 0.117396 -0.315608 10.6041 -0.285237 0.0892303
298.20276 1.55002 0.100969 -0.270762 10.6041 -0.210341 0.115412
308.79274 1.57011 0.103718 -0.280262 10.6041 -0.208143 0.039733
318.88997 1.57561 0.109509 -0.294835 10.6041 -0.147022 0.0237432
328.86402 1.56542 0.118347 -0.296659 10.6041 -0.11932 0.0248295
339.07299 1.51198 0.123228 -0.277345 10.6041 -0.146978 0.0379439
351.51992 1.48651 0.125252 -0.24287 10.6041 0.00824126 0.062672
5.33205 1.59456 0.147913 -0.306927 10.6041 0.0145343 0.0256849
15.92622 1.61132 0.145839 -0.315641 10.6041 0.127105 0.0257516
26.05359 1.66231 0.143662 -0.312831 10.6041 0.145658 0.0429751
41.72703 1.65758 0.160492 -0.299857 10.6041 0.312867 0.0938771
82.41883 1.60569 0.17125 -0.300359 10.6041 0.46651 0.0524918
100.63889 1.60293 0.161921 -0.299122 10.6041 0.202051 0.0813978
113.72353 1.61206 0.159886 -0.295003 10.6041 0.127021 0.11238
126.27130 1.58405 0.164224 -0.298265 10.6041 0.297809 0.0774805
139.20353 1.57597 0.158917 -0.314634 10.6041 0.228745 0.0738402
149.41765 1.6094 0.157115 -0.308411 10.6041 0.160265 0.0725917
160.25687 1.58967 0.1592 -0.309153 10.6041 0.0738126 0.0766664
170.70475 1.58753 0.155874 -0.313347 10.6041 0.0643592 0.0849942
181.37380 1.58089 0.156546 -0.319728 10.6041 -0.154017 0.112012
194.32952 1.5968 0.158289 -0.313771 10.6041 0.250391 0.0734102
208.62883 1.59391 0.156495 -0.311116 10.6041 -0.189025 0.101277
222.45201 1.58041 0.161855 -0.306988 10.6041 -0.0077834 0.111533
246.67724 1.60037 0.163415 -0.321453 10.6041 -0.453142 0.111939
272.14063 1.58945 0.159272 -0.329352 10.6041 -0.227572 0.100751
289.82325 1.58036 0.153307 -0.334318 10.6041 -0.307907 0.0899051
305.36817 1.58053 0.163585 -0.341426 10.6041 -0.298514 0.094178
325.47383 1.68172 0.143708 -0.335765 10.6041 -0.139014 0.120605
337.11748 1.65078 0.138323 -0.327451 10.6041 -0.0815662 0.0364583
350.92576 1.60412 0.146593 -0.312846 10.6041 -0.0472144 0.0205619
5.19883 1.60413 0.255674 -0.352464 10.6041 -0.0394466 0.0694078
15.58205 1.5969 0.251917 -0.348461 10.6041 0.240088 0.0678129
26.80245 1.6038 0.254761 -0.343387 10.6041 0.117719 0.1045
40.85241 1.60681 0.270767 -0.338026 10.6041 -0.00701786 0.117163
69.62640 1.60013 0.262034 -0.33628 10.6041 0.429018 0.0846371
97.20802 1.60453 0.248841 -0.343335 10.6041 0.0267452 0.139304
120.74513 1.58002 0.237419 -0.363678 10.6041 0.296616 0.137262
267.49451 1.61819 0.25862 -0.369369 10.6041 -0.909066 0.329242
307.22914 1.61819 0.263816 -0.382624 10.6041 0.200898 0.160721
341.21871 1.6236 0.266252 -0.334745 10.6041 -0.239627 0.0937884
354.62191 1.589 0.254431 -0.350178 10.6041 0.168898 0.0556884
25.92279 1.50893 0.117404 -0.629299 10.6041 0.0114797 0.0430526
34.17086 1.57172 0.112037 -0.559785 10.6041 0.118245 0.0221521
43.53551 1.57039 0.10538 -0.508706 10.6041 0.0422385 0.0417597
59.60423 1.53812 0.109939 -0.532032 10.6041 0.115717 0.103836
91.73455 1.56038 0.116686 -0.578352 10.6041 0.0598101 0.136171
131.38724 1.56571 0.112943 -0.534755 10.6041 0.183319 0.081289
150.97266 1.55285 0.115171 -0.570256 10.6041 -0.104811 0.118118
166.06093 1.54565 0.113952 -0.56408 10.6041 0.114826 0.0969509
181.76971 1.56421 0.113903 -0.553428 10.6041 0.167965 0.0769748
209.18861 1.55365 0.114234 -0.567249 10.6041 -0.370768 0.135296
245.21677 1.5551 0.111093 -0.567489 10.6041 -0.00981308 0.0971915
267.48535 1.54813 0.114487 -0.578397 10.6041 -0.0796155 0.0935056
286.26576 1.54254 0.119131 -0.581138 10.6041 -0.212765 0.09964
309.07062 1.55991 0.103145 -0.485656 10.6041 0.132532 0.0742127
319.49559 1.57623 0.106971 -0.521621 10.6041 -0.156891 0.0373801
328.91387 1.55417 0.114246 -0.580486 10.6041 -0.0923461 0.0254495
336.71355 1.47757 0.121026 -0.629087 10.6041 0.0192161 0.0824402
5.41378 1.58961 0.17658 -0.538745 10.6041 0.00546565 0.0367293
16.57945 1.58336 0.159368 -0.581983 10.6041 0.0793285 0.030582
25.91471 1.63727 0.140137 -0.582071 10.6041 0.0828868 0.0380761
38.15630 1.62993 0.163119 -0.604961 10.6041 0.0186006 0.111053
52.51932 1.56667 0.165259 -0.648179 10.6041 0.211066 0.0721536
63.68540 1.59195 0.161076 -0.621265 10.6041 0.14175 0.0955126
86.31208 1.60084 0.161212 -0.601439 10.6041 0.163601 0.0955506
119.45769 1.60411 0.169074 -0.54681 10.6041 0.262055 0.0923217
144.88556 1.5933 0.161047 -0.566086 10.6041 0.154554 0.0961684
160.02597 1.58431 0.156552 -0.580001 10.6041 0.150699 0.0945709
170.79184 1.5887 0.160761 -0.574043 10.6041 -0.206212 0.109196
183.03767 1.58543 0.165206 -0.57208 10.6041 0.100829 0.0949691
198.84271 1.58397 0.167809 -0.583168 10.6041 0.0368103 0.101714
221.69341 1.61172 0.161368 -0.574093 10.6041 -0.12084 0.124201
257.50213 1.61618 0.163197 -0.590491 10.6041 -0.307156 0.143223
275.25122 1.5974 0.162401 -0.56878 10.6041 -0.218367 0.106439
285.78218 1.58738 0.156613 -0.602119 10.6041 -0.286412 0.110174
298.61242 1.589 0.163293 -0.588699 10.6041 -0.421983 0.100158
313.17071 1.5661 0.173197 -0.579933 10.6041 -0.191015 0.0858376
326.91826 1.64715 0.153387 -0.56403 10.6041 -0.0916876 0.0716143
337.09055 1.60947 0.146228 -0.583732 10.6041 -0.136297 0.0303134
349.67213 1.57778 0.17032 -0.55664 10.6041 -0.0715832 0.0257433
11.47841 1.63133 0.255805 -0.663732 10.6041 0.166141 0.0608439
52.98903 1.58816 0.254179 -0.692777 10.6041 0.131621 0.115079
89.71201 1.5714 0.253573 -0.592799 10.6041 0.0994853 0.194968
129.40080 1.59503 0.252553 -0.626081 10.6041 0.240505 0.109181
160.90145 1.61382 0.238455 -0.605707 10.6041 0.0638697 0.111068
192.00790 1.61268 0.232857 -0.643641 10.6041 0.121149 0.0877923
230.21960 1.63142 0.263787 -0.66832 10.6041 0.0647358 0.129649
266.86483 1.58306 0.239769 -0.610457 10.6041 0.0198262 0.159819
301.54826 1.62638 0.249215 -0.626185 10.6041 -0.42469 0.187473
322.36611 1.60336 0.256235 -0.677493 10.6041 -0.078948 0.0974655
346.27850 1.60519 0.255262 -0.677562 10.6041 -0.0289526 0.0584761
5.23454 1.53944 0.109622 -1.17272 10.6041 -0.0812171 0.0592202
16.84794 1.54696 0.111359 -1.06002 10.6041 0.0134844 0.0506183
26.04002 1.56869 0.112323 -0.939426 10.6041 0.134068 0.0534347
46.26348 1.55556 0.11301 -1.09822 10.6041 0.0889999 0.130427
270.12611 1.55096 0.114633 -1.18025 10.6041 -0.194226 0.174767
330.32850 1.58338 0.110298 -0.921366 10.6041 0.0145344 0.0827296
340.00404 1.55793 0.112766 -0.994898 10.6041 -0.0111787 0.0410654
352.65323 1.56641 0.110715 -1.16583 10.6041 0.0838811 0.0420496
5.42182 1.58388 0.158771 -1.36134 10.6041 0.0914842 0.0551637
16.22645 1.59444 0.160568 -1.07518 10.6041 0.0943404 0.0410698
27.69328 1.63902 0.153956 -1.04549 10.6041 -0.0159364 0.0899407
50.18984 1.59191 0.168349 -1.03151 10.6041 0.0595019 0.0934797
75.82122 1.5752 0.164795 -1.14527 10.6041 0.103913 0.136697
151.57026 1.59789 0.173045 -1.24796 10.6041 0.0413233 0.121093
184.01342 1.56614 0.175859 -1.14786 10.6041 -0.0228915 0.112369
259.63582 1.5722 0.161432 -0.980445 10.6041 0.0690201 0.173255
295.59007 1.61834 0.15842 -0.980372 10.6041 -0.472845 0.176205
330.80177 1.61552 0.156076 -1.081 10.6041 -0.00895755 0.085425
343.59305 1.59615 0.160727 -1.06034 10.6041 -0.0629843 0.0421101
354.68093 1.5986 0.159215 -1.36773 10.6041 -0.0296375 0.0601953
5.48087 2.04973 0.144721 -0.15523 10.6041 0.0115625 0.0261525
16.33125 2.04975 0.142852 -0.155184 10.6041 0.0812281 0.0246585
27.03971 2.06163 0.140409 -0.160115 10.6041 0.135234 0.0241602
37.49934 2.05264 0.135614 -0.161548 10.6041 0.141826 0.027949
47.98602 2.03076 0.131824 -0.162502 10.6041 0.20018 0.0499084
58.30361 2.00073 0.129152 -0.160431 10.6041 0.206926 0.080708
75.80117 1.93511 0.142147 -0.157211 10.6041 0.31593 0.139953
99.44313 1.98855 0.148177 -0.173349 10.6041 0.241934 0.106216
115.19546 2.02106 0.145557 -0.170486 10.6041 0.288218 0.0928453
127.70370 2.00186 0.144133 -0.173659 10.6041 0.309019 0.0995631
138.72454 2.01693 0.143167 -0.176204 10.6041 0.20921 0.0959306
149.59871 1.98305 0.1412 -0.171212 10.6041 0.00675894 0.089193
160.22650 2.01363 0.143106 -0.175207 10.6041 0.010535 0.102277
170.66407 1.99092 0.142657 -0.175497 10.6041 0.0110256 0.120548
183.70058 1.99575 0.141586 -0.169507 10.6041 -0.106631 0.107175
198.05375 1.97694 0.141749 -0.174015 10.6041 0.0173457 0.124924
215.56506 1.97742 0.145512 -0.168446 10.6041 -0.175744 0.11727
297.13018 1.96767 0.126328 -0.156521 10.6041 -0.325209 0.110084
308.49595 2.02049 0.130876 -0.158056 10.6041 -0.140118 0.0569587
318.85961 2.0433 0.134113 -0.164457 10.6041 -0.202878 0.0315824
329.21467 2.06072 0.138789 -0.163199 10.6041 -0.106682 0.0266633
340.01378 2.06065 0.142523 -0.159641 10.6041 -0.056027 0.0271927
352.81767 2.04088 0.144043 -0.155143 10.6041 -0.0662251 0.0230437
5.35287 2.16698 0.200931 -0.186478 10.6041 0.0648763 0.0475669
16.10115 2.14375 0.205604 -0.185579 10.6041 0.110168 0.0453345
26.79225 2.10567 0.210579 -0.179247 10.6041 0.175357 0.0505523
37.66212 2.08013 0.211121 -0.182034 10.6041 0.225664 0.058119
48.01936 2.08842 0.215463 -0.181409 10.6041 0.295923 0.0704311
59.27707 2.09398 0.204858 -0.172419 10.6041 0.291252 0.0828459
70.11399 2.11909 0.20049 -0.175957 10.6041 0.367671 0.0796546
80.75210 2.09219 0.197035 -0.174019 10.6041 0.277114 0.0778622
92.08979 2.11493 0.198044 -0.181677 10.6041 0.210574 0.0844523
102.58179 2.12561 0.195428 -0.184762 10.6041 0.440373 0.0942546
112.67100 2.10717 0.193422 -0.18849 10.6041 0.328443 0.086122
123.40881 2.13857 0.186195 -0.188305 10.6041 0.324793 0.100601
134.55971 2.12923 0.182351 -0.186537 10.6041 0.101154 0.118321
145.89568 2.13139 0.179874 -0.192578 10.6041 0.159614 0.120646
158.65087 2.13578 0.181674 -0.195436 10.6041 0.256973 0.106345
172.61442 2.10926 0.179633 -0.193166 10.6041 0.0249093 0.123805
191.90591 2.10807 0.178255 -0.190964 10.6041 0.114744 0.111728
212.55302 2.11838 0.183317 -0.192984 10.6041 -0.198741 0.107462
241.05137 2.10431 0.198236 -0.195189 10.6041 -0.35389 0.117387
271.38089 2.08711 0.213912 -0.191946 10.6041 -0.274173 0.11778
299.83855 2.08632 0.223145 -0.176767 10.6041 -0.359348 0.107545
319.12489 2.10983 0.216581 -0.17171 10.6041 -0.181301 0.140121
329.86899 2.16428 0.210826 -0.176821 10.6041 -0.112413 0.108885
340.60565 2.14585 0.204803 -0.18227 10.6041 -0.0305879 0.0556864
352.93856 2.14858 0.202171 -0.184411 10.6041 -0.00307035 0.0416878
5.61428 2.13305 0.309911 -0.235207 10.6041 0.0647052 0.0848925
16.53121 2.14849 0.307757 -0.237602 10.6041 0.18827 0.0960871
26.98700 2.08776 0.304439 -0.235275 10.6041 0.32429 0.0858301
37.56254 2.11551 0.303591 -0.22735 10.6041 0.130206 0.11815
48.16690 2.09475 0.305596 -0.230758 10.6041 0.361555 0.135892
59.34238 2.1052 0.311882 -0.247379 10.6041 0.112195 0.161371
78.03857 2.13432 0.298177 -0.245341 10.6041 0.346127 0.165542
266.85280 2.11173 0.309632 -0.257793 10.6041 -0.023685 0.204517
298.37465 2.10954 0.313266 -0.246129 10.6041 -0.0354776 0.139317
317.31033 2.11076 0.315791 -0.238182 10.6041 -0.339098 0.135057
329.40604 2.12348 0.311085 -0.228453 10.6041 -0.172048 0.115114
340.52200 2.10774 0.310786 -0.233133 10.6041 -0.123449 0.10058
352.55124 2.12306 0.30965 -0.239274 10.6041 -0.230803 0.0739908
5.55495 1.94443 0.152067 -0.270046 10.6041 0.047737 0.0493895
16.94672 1.97815 0.150589 -0.285511 10.6041 -0.00153711 0.0386833
27.38246 2.02737 0.146131 -0.300818 10.6041 0.118707 0.0257633
37.85767 2.05602 0.138727 -0.305321 10.6041 0.138681 0.024072
47.40567 2.04061 0.13316 -0.299587 10.6041 0.204382 0.0432747
57.51694 2.02433 0.129517 -0.28135 10.6041 0.13789 0.166139
90.80694 2.01242 0.148022 -0.283778 10.6041 0.133922 0.17969
110.76707 2.02601 0.143972 -0.292114 10.6041 0.247794 0.103623
124.81427 2.00628 0.142126 -0.305384 10.6041 0.0342292 0.116453
134.79978 2.04667 0.142952 -0.294064 10.6041 0.210784 0.0823447
146.03033 2.02375 0.142309 -0.30417 10.6041 0.0164021 0.0919438
156.62432 2.01232 0.142538 -0.304185 10.6041 -0.0195501 0.0950782
167.64115 1.99307 0.141929 -0.30715 10.6041 0.0221407 0.0974737
177.91027 2.00951 0.142618 -0.306647 10.6041 -0.129795 0.105638
190.32111 1.99763 0.145329 -0.305086 10.6041 -0.221869 0.122342
203.97928 2.00152 0.145031 -0.302075 10.6041 0.123281 0.111985
231.29619 2.03995 0.145261 -0.314929 10.6041 -0.128046 0.158575
258.55523 2.04457 0.141354 -0.332344 10.6041 -0.223161 0.115154
282.12957 1.95628 0.141807 -0.327977 10.6041 -0.346933 0.130396
305.58131 2.02447 0.130418 -0.2891 10.6041 -0.141654 0.0839073
315.87965 2.04409 0.134526 -0.299221 10.6041 -0.130034 0.0307023
325.50076 2.05515 0.141638 -0.306113 10.6041 -0.147231 0.0235995
336.10163 2.0046 0.148093 -0.300938 10.6041 -0.0824522 0.0283347
349.80391 1.9541 0.15185 -0.279125 10.6041 -0.0196411 0.0332207
5.35610 2.14063 0.182153 -0.327071 10.6041 0.0336245 0.0304527
16.05835 2.16935 0.183907 -0.327696 10.6041 0.0512084 0.034321
26.47821 2.20387 0.186596 -0.324833 10.6041 0.190238 0.0504431
36.94014 2.19865 0.198449 -0.315746 10.6041 0.100397 0.11466
58.56144 2.11147 0.213225 -0.298419 10.6041 0.52726 0.110636
77.39571 2.12608 0.207245 -0.309791 10.6041 0.227806 0.127544
88.26014 2.12003 0.208805 -0.312887 10.6041 0.143374 0.119502
98.86616 2.12392 0.202534 -0.317259 10.6041 0.353145 0.106307
109.44411 2.11549 0.200431 -0.320453 10.6041 0.183894 0.125298
120.05013 2.09422 0.201918 -0.323072 10.6041 -0.0198716 0.119731
131.38037 2.10987 0.194773 -0.323731 10.6041 0.140342 0.0958558
142.44590 2.10659 0.188639 -0.324487 10.6041 0.267886 0.091848
152.97515 2.10728 0.189644 -0.324464 10.6041 -0.0334328 0.102795
163.87109 2.11048 0.186758 -0.331576 10.6041 0.0462278 0.0900301
174.48398 2.11229 0.187184 -0.337037 10.6041 -0.0957902 0.107338
184.99088 2.11488 0.191276 -0.339007 10.6041 0.0736069 0.127056
196.01803 2.08704 0.188612 -0.330288 10.6041 -0.29044 0.119353
207.43994 2.08371 0.191092 -0.335719 10.6041 -0.0374075 0.152674
217.13783 2.12162 0.193281 -0.320988 10.6041 -0.111934 0.132505
229.92453 2.08474 0.198202 -0.334243 10.6041 -0.094314 0.15103
248.49008 2.11124 0.208281 -0.350392 10.6041 -0.347074 0.129989
270.56213 2.10852 0.194536 -0.342219 10.6041 -0.432958 0.126078
288.54728 2.11592 0.19578 -0.343329 10.6041 -0.319723 0.123113
301.51732 2.06845 0.199037 -0.347697 10.6041 -0.277074 0.121533
320.45873 2.19215 0.186116 -0.347043 10.6041 -0.110461 0.163563
333.88428 2.26153 0.170397 -0.335911 10.6041 -0.0953551 0.0601915
343.79588 2.18553 0.175431 -0.333074 10.6041 -0.0872222 0.0358058
354.59327 2.13507 0.181745 -0.327674 10.6041 0.00879561 0.0312733
5.16378 2.11727 0.310132 -0.400263 10.6041 0.0142212 0.0838804
16.16996 2.12941 0.306192 -0.391297 10.6041 0.191896 0.0937388
26.81082 2.12014 0.304319 -0.369944 10.6041 0.137717 0.110309
38.94555 2.13642 0.317343 -0.386297 10.6041 0.228133 0.160087
54.88053 2.12039 0.3222 -0.390263 10.6041 0.142231 0.167753
80.13273 2.12115 0.314297 -0.385075 10.6041 0.0901484 0.177393
103.67041 2.12891 0.309073 -0.403161 10.6041 -0.0644228 0.174744
130.95924 2.15515 0.305138 -0.414512 10.6041 0.208191 0.153224
171.53440 2.16001 0.292964 -0.402247 10.6041 0.244062 0.141624
204.12366 2.12498 0.292566 -0.406616 10.6041 -0.170063 0.217593
239.46083 2.17141 0.312121 -0.424474 10.6041 -0.124451 0.22231
275.40878 2.10749 0.305758 -0.401244 10.6041 -0.468984 0.249373
314.85864 2.12903 0.309404 -0.386562 10.6041 -0.186317 0.159886
339.31592 2.10282 0.311436 -0.378667 10.6041 -0.10054 0.127122
353.38031 2.12395 0.310744 -0.3957 10.6041 -0.189301 0.0719326
22.30868 1.90464 0.153395 -0.542516 10.6041 0.143483 0.0758993
31.21400 2.02515 0.143699 -0.588216 10.6041 0.110566 0.0293008
40.33967 2.04763 0.135965 -0.538687 10.6041 0.1231 0.035991
50.40499 2.03644 0.132531 -0.505383 10.6041 0.0859768 0.168955
71.92969 1.95362 0.145409 -0.655247 10.6041 0.427264 0.154305
116.54019 2.04335 0.14432 -0.539325 10.6041 0.177214 0.152212
138.93596 2.02057 0.141928 -0.550797 10.6041 0.207195 0.10863
152.98202 1.99208 0.141125 -0.575914 10.6041 -0.00457868 0.144135
164.09683 2.00555 0.141012 -0.5641 10.6041 -0.18475 0.123804
175.86768 2.01609 0.143304 -0.561246 10.6041 -0.147564 0.131932
194.29916 2.03188 0.144965 -0.57331 10.6041 0.0110658 0.138933
228.20623 2.03222 0.13998 -0.565424 10.6041 -0.203964 0.142609
254.87283 2.04893 0.142708 -0.584993 10.6041 -0.0967734 0.120513
269.69811 2.00712 0.142518 -0.583406 10.6041 -0.319454 0.0982249
282.05853 1.96272 0.146932 -0.595338 10.6041 -0.0596594 0.123994
299.04042 1.97493 0.142798 -0.554348 10.6041 -0.112832 0.110744
316.38042 2.04042 0.134166 -0.522932 10.6041 -0.132639 0.0602236
325.98835 2.03196 0.140408 -0.576549 10.6041 -0.0767849 0.0285279
334.46583 1.94339 0.149076 -0.582381 10.6041 -0.103113 0.044917
5.55349 2.08791 0.198816 -0.564696 10.6041 0.059445 0.0373525
16.25052 2.0944 0.185465 -0.577719 10.6041 0.0985114 0.0352284
26.37651 2.18961 0.171516 -0.594023 10.6041 0.191503 0.0416081
36.16469 2.25168 0.175842 -0.596479 10.6041 0.23245 0.139489
53.51300 2.01852 0.20192 -0.677719 10.6041 0.22749 0.117216
69.30268 2.09126 0.193227 -0.655321 10.6041 0.123447 0.140621
96.38583 2.09257 0.207357 -0.595921 10.6041 0.320186 0.143056
113.51153 2.07841 0.203742 -0.556074 10.6041 0.0643789 0.153319
126.60190 2.0857 0.200598 -0.575978 10.6041 0.109687 0.13692
138.89757 2.10102 0.204392 -0.587808 10.6041 -0.279175 0.155881
149.35692 2.10672 0.198595 -0.584641 10.6041 0.207381 0.123466
160.56569 2.11842 0.193851 -0.589842 10.6041 0.00158126 0.111973
170.90701 2.1085 0.192235 -0.576302 10.6041 0.0331428 0.116421
181.54168 2.09645 0.199043 -0.592861 10.6041 -0.181048 0.134744
192.79743 2.06932 0.209719 -0.588555 10.6041 -0.0623833 0.135319
205.08222 2.09284 0.206964 -0.587386 10.6041 0.0783984 0.128671
224.86760 2.08449 0.200419 -0.594557 10.6041 0.0585793 0.156328
251.72442 2.12178 0.195837 -0.607546 10.6041 -0.235465 0.161146
268.23248 2.07621 0.187664 -0.607812 10.6041 -0.194625 0.140901
279.13358 2.15002 0.191033 -0.593546 10.6041 -0.191281 0.118877
289.91435 2.11634 0.195457 -0.616368 10.6041 -0.333938 0.118578
300.48542 2.08893 0.195412 -0.606979 10.6041 -0.208042 0.0995933
311.63404 2.06711 0.210065 -0.620697 10.6041 -0.226149 0.0958491
322.71619 2.17815 0.195135 -0.604314 10.6041 -0.194264 0.092746
333.71125 2.1719 0.173299 -0.600671 10.6041 -0.185429 0.0404732
343.19312 2.09309 0.184386 -0.589306 10.6041 -0.14927 0.0310636
354.44029 2.09459 0.200369 -0.579038 10.6041 -0.0479698 0.0365143
4.65377 2.11638 0.307372 -0.633335 10.6041 -0.0605118 0.112035
25.11137 2.15523 0.326826 -0.653242 10.6041 0.283842 0.144533
65.37162 2.05361 0.295985 -0.666258 10.6041 -0.153186 0.326015
104.50922 2.12709 0.318653 -0.679882 10.6041 0.0196028 0.194865
131.10707 2.13738 0.314356 -0.667171 10.6041 0.208456 0.141514
157.74731 2.15888 0.296117 -0.680442 10.6041 0.124085 0.147216
191.30602 2.18402 0.29589 -0.679808 10.6041 -0.0680932 0.15568
228.05611 2.07337 0.305502 -0.658568 10.6041 0.0129501 0.150518
259.74010 2.11371 0.326867 -0.714517 10.6041 -0.042007 0.30688
300.88306 2.08261 0.305048 -0.702729 10.6041 -0.0964805 0.327492
331.57469 2.1175 0.319772 -0.722673 10.6041 0.153155 0.158822
355.89503 2.11418 0.319397 -0.638724 10.6041 -0.045866 0.104987
4.85190 1.98825 0.138469 -1.37848 10.6041 -0.0221817 0.087504
16.91990 1.9861 0.140095 -1.18859 10.6041 -0.0728331 0.0698943
26.56198 2.02031 0.14145 -0.980153 10.6041 0.209309 0.0550553
39.39658 2.03832 0.14007 -1.03259 10.6041 0.102643 0.129279
73.69784 2.02176 0.143831 -1.33042 10.6041 0.178857 0.176668
152.43943 1.98713 0.141234 -1.07235 10.6041 -0.100104 0.186628
261.84744 2.0491 0.142368 -1.12232 10.6041 0.437292 0.150872
291.26424 2.02094 0.146706 -1.20933 10.6041 -0.349416 0.244968
326.69423 2.07718 0.13997 -1.01422 10.6041 -0.0847949 0.0896402
335.96755 2.01267 0.141562 -1.02208 10.6041 -0.126924 0.0474779
349.55525 2.00665 0.140956 -1.34799 10.6041 -0.0495358 0.0555668
6.09816 2.08646 0.206434 -1.46869 10.6041 -0.124612 0.0753819
16.46400 2.09921 0.199999 -1.15934 10.6041 -0.00173656 0.0480078
25.43572 2.17698 0.180848 -1.10294 10.6041 0.139566 0.0920371
42.78700 2.0761 0.207302 -1.19319 10.6041 0.0395782 0.108552
57.88478 2.09668 0.203384 -1.16317 10.6041 0.227816 0.112912
77.43868 2.06482 0.201774 -1.22815 10.6041 0.041555 0.177643
152.30708 2.06842 0.211126 -1.21367 10.6041 0.267255 0.149915
172.17153 2.07382 0.211144 -1.29695 10.6041 0.0428675 0.159208
201.25716 2.10655 0.21771 -1.15978 10.6041 -0.0383115 0.173612
241.15450 2.07598 0.208551 -1.32442 10.6041 -0.15886 0.211165
271.99567 2.09202 0.201074 -1.2555 10.6041 -0.185727 0.197008
289.47146 2.101 0.196506 -1.06662 10.6041 -0.216975 0.141042
307.05324 2.12191 0.208404 -1.18464 10.6041 -0.0531877 0.134881
328.42113 2.16347 0.190743 -1.13604 10.6041 -0.18064 0.120791
340.34266 2.12789 0.189343 -1.10704 10.6041 -0.0779646 0.0464016
350.99395 2.09151 0.209887 -1.33884 10.6041 0.0452827 0.0538303
17.42972 2.13253 0.30601 -1.3341 10.6041 0.108246 0.13557
48.63495 2.11888 0.289359 -1.14897 10.6041 0.424005 0.257625
124.81943 2.19873 0.309512 -1.18551 10.6041 -0.178966 0.253015
157.44307 2.13794 0.279809 -1.13833 10.6041 0.168611 0.256432
237.95682 2.15178 0.295669 -1.31341 10.6041 0.31287 0.203987
264.75291 2.17046 0.302615 -1.52544 10.6041 -0.322592 0.394536
308.72055 2.15767 0.317572 -1.21556 10.6041 -0.291079 0.222234
343.14500 2.13074 0.298602 -1.21149 10.6041 -0.073852 0.105538
5.33178 2.73728 0.181162 -0.17333 10.6041 0.00642873 0.0294845
16.24152 2.73276 0.179714 -0.175554 10.6041 0.146139 0.0289518
26.63429 2.70667 0.176519 -0.179421 10.6041 0.0164214 0.0341971
36.93595 2.68434 0.174057 -0.179905 10.6041 0.103438 0.0561691
47.41913 2.62095 0.171998 -0.173829 10.6041 0.169256 0.102939
67.61704 2.56192 0.191952 -0.175984 10.6041 0.313265 0.107745
86.32010 2.6276 0.193913 -0.181976 10.6041 0.372816 0.0997073
100.51513 2.67229 0.191549 -0.188642 10.6041 -0.074079 0.126017
117.56292 2.68548 0.187338 -0.186256 10.6041 0.398464 0.0922954
131.29500 2.6618 0.188151 -0.192357 10.6041 0.0549948 0.104082
142.06030 2.67057 0.187555 -0.188838 10.6041 0.0379981 0.123365
155.07676 2.64436 0.18463 -0.197125 10.6041 0.0246008 0.104048
170.59990 2.65946 0.185083 -0.198054 10.6041 0.252805 0.0955445
191.97352 2.68197 0.186247 -0.193446 10.6041 0.0709555 0.107379
220.34123 2.65433 0.187521 -0.187201 10.6041 -0.137818 0.119353
306.79713 2.60651 0.168898 -0.172825 10.6041 0.0133442 0.144004
319.15583 2.66915 0.171349 -0.180733 10.6041 -0.198793 0.0740834
329.63981 2.69421 0.175058 -0.183656 10.6041 -0.0903145 0.0426911
340.17364 2.72978 0.178899 -0.17753 10.6041 -0.0630041 0.0343543
352.82225 2.73802 0.181241 -0.174067 10.6041 -0.0186581 0.0261404
5.45759 2.77461 0.26923 -0.21288 10.6041 0.0808242 0.0579834
16.34053 2.75666 0.266732 -0.210026 10.6041 0.0498451 0.053069
26.85052 2.75534 0.266115 -0.214552 10.6041 0.245789 0.0481858
37.61222 2.76163 0.263189 -0.20917 10.6041 0.174913 0.0598703
48.25628 2.75518 0.26365 -0.211026 10.6041 0.24937 0.0656863
59.39395 2.78365 0.256635 -0.202371 10.6041 0.292916 0.0828488
70.12832 2.81951 0.249598 -0.204611 10.6041 0.452921 0.0713105
80.84148 2.81523 0.246572 -0.211478 10.6041 0.456999 0.0994503
91.70304 2.84718 0.245703 -0.215705 10.6041 0.415593 0.0887428
104.92404 2.86217 0.239403 -0.210445 10.6041 0.347293 0.0967296
128.46459 2.85945 0.238598 -0.221201 10.6041 0.111778 0.111365
161.19079 2.8105 0.252152 -0.239814 10.6041 0.0277534 0.111832
198.20787 2.8624 0.254263 -0.238505 10.6041 -0.0252911 0.125949
233.57369 2.7921 0.247323 -0.233075 10.6041 -0.102826 0.157785
270.37821 2.77011 0.251303 -0.214653 10.6041 -0.428299 0.0970869
294.25164 2.78667 0.267904 -0.214464 10.6041 -0.24965 0.120461
310.67147 2.77766 0.271115 -0.20765 10.6041 -0.429358 0.0970654
322.40908 2.76762 0.271359 -0.210423 10.6041 -0.25328 0.0887071
333.45399 2.79367 0.268908 -0.210193 10.6041 -0.154128 0.0718127
343.91792 2.77567 0.268514 -0.214666 10.6041 -0.168025 0.0631117
354.63796 2.78433 0.267567 -0.213681 10.6041 -0.124973 0.0570749
5.48130 2.81292 0.384578 -0.313099 10.6041 -0.0361733 0.121591
16.29503 2.80543 0.380267 -0.317424 10.6041 0.261019 0.122591
29.26880 2.86749 0.379079 -0.311141 10.6041 0.397282 0.100769
43.89481 2.79208 0.373879 -0.309638 10.6041 0.386272 0.111955
65.31662 2.82525 0.383034 -0.31851 10.6041 0.218277 0.131252
96.81612 2.82644 0.391167 -0.321806 10.6041 0.224581 0.13411
239.39208 2.91324 0.404629 -0.323214 10.6041 -0.302817 0.20342
276.82972 2.78727 0.395749 -0.322635 10.6041 0.10111 0.239307
311.29828 2.81472 0.385286 -0.31466 10.6041 0.0860263 0.188882
331.14841 2.82763 0.379828 -0.303285 10.6041 -0.308334 0.129112
343.86922 2.80588 0.382089 -0.315185 10.6041 -0.250907 0.152225
354.83219 2.84254 0.383625 -0.310153 10.6041 -0.0129932 0.138408
5.42176 2.68765 0.19356 -0.314778 10.6041 0.0583874 0.0319459
16.44211 2.72495 0.190759 -0.313135 10.6041 0.0440803 0.0308769
27.17378 2.74313 0.185028 -0.32404 10.6041 0.13747 0.025447
36.97732 2.71867 0.177281 -0.324122 10.6041 0.141181 0.0362184
47.09541 2.66649 0.171236 -0.317711 10.6041 0.169704 0.0823462
76.48070 2.6413 0.191846 -0.302586 10.6041 0.147465 0.128223
97.20859 2.69327 0.189596 -0.316342 10.6041 0.144965 0.107699
111.91699 2.66339 0.188174 -0.318831 10.6041 0.161405 0.100167
126.52627 2.68598 0.189362 -0.325707 10.6041 0.261222 0.0875254
138.50796 2.67872 0.185896 -0.314915 10.6041 0.0637989 0.0964827
149.64684 2.68086 0.18697 -0.319701 10.6041 -0.0629752 0.103206
160.04258 2.69032 0.18727 -0.316743 10.6041 0.0628149 0.106906
170.27962 2.66565 0.184819 -0.321343 10.6041 0.00280114 0.128606
183.52125 2.69726 0.18759 -0.322204 10.6041 -0.026756 0.108291
200.25620 2.6232 0.185323 -0.323898 10.6041 -0.109882 0.111147
220.52458 2.66935 0.190168 -0.320315 10.6041 -0.212612 0.123232
250.13561 2.66704 0.185957 -0.341584 10.6041 -0.0928852 0.12902
274.10645 2.64997 0.187828 -0.350462 10.6041 -0.356052 0.10666
307.75167 2.64142 0.173277 -0.312595 10.6041 -0.227424 0.104431
319.59185 2.70404 0.175369 -0.324595 10.6041 -0.19299 0.0414201
329.41464 2.74198 0.182026 -0.324144 10.6041 -0.124836 0.0284176
339.90206 2.73156 0.189277 -0.319004 10.6041 -0.0489565 0.0291163
352.32034 2.68861 0.192673 -0.315664 10.6041 0.032278 0.02894
5.27254 2.94445 0.244281 -0.362211 10.6041 0.115349 0.046546
16.12126 2.92406 0.251725 -0.369976 10.6041 0.0736026 0.0484537
26.64420 2.8522 0.264831 -0.362876 10.6041 0.30672 0.0582883
37.57291 2.81151 0.271478 -0.354912 10.6041 0.226392 0.0781896
48.42278 2.78847 0.272271 -0.35918 10.6041 0.250551 0.0876332
61.59927 2.78608 0.268107 -0.349245 10.6041 0.406645 0.0893332
73.94593 2.8402 0.253743 -0.345152 10.6041 0.340779 0.0880359
83.99218 2.80535 0.25459 -0.350174 10.6041 0.245541 0.107027
95.27830 2.81611 0.251235 -0.357343 10.6041 0.236361 0.0910811
106.26419 2.84305 0.245512 -0.347843 10.6041 0.370924 0.106474
118.24073 2.80524 0.248873 -0.353305 10.6041 0.337187 0.113928
131.48006 2.82452 0.254672 -0.371145 10.6041 0.109135 0.12275
142.31813 2.8402 0.244183 -0.353401 10.6041 0.269338 0.103005
154.74100 2.82839 0.245962 -0.370314 10.6041 0.253529 0.102543
169.38179 2.83655 0.246012 -0.366176 10.6041 0.0682678 0.105619
183.89424 2.84559 0.252005 -0.380546 10.6041 0.20417 0.109167
198.36658 2.79202 0.254393 -0.385413 10.6041 0.126958 0.111001
213.93843 2.82904 0.251657 -0.370584 10.6041 -0.0576792 0.120167
233.84986 2.82452 0.255805 -0.361451 10.6041 -0.29913 0.125427
259.69026 2.87758 0.258988 -0.374907 10.6041 -0.414196 0.117978
285.35132 2.86784 0.254216 -0.370232 10.6041 -0.349038 0.126049
301.96881 2.82067 0.259414 -0.373394 10.6041 -0.159716 0.121645
322.59529 2.89501 0.268882 -0.36791 10.6041 -0.125003 0.128193
337.43662 2.93935 0.251829 -0.361283 10.6041 -0.21333 0.0868961
351.47867 2.93081 0.248336 -0.365864 10.6041 -0.0581009 0.0367589
4.97058 2.85933 0.373342 -0.460286 10.6041 0.196656 0.123095
16.34849 2.82686 0.382685 -0.482441 10.6041 0.103918 0.131921
29.07050 2.80303 0.375674 -0.459994 10.6041 0.174353 0.123937
40.80290 2.86824 0.380764 -0.452738 10.6041 0.021188 0.149757
56.84710 2.84124 0.37565 -0.46626 10.6041 0.107314 0.17237
85.74084 2.80557 0.384365 -0.486404 10.6041 0.347264 0.155313
119.88626 2.91059 0.400532 -0.511006 10.6041 -0.0191113 0.160996
153.94574 2.95765 0.393929 -0.515398 10.6041 0.604206 0.109218
230.39836 2.78716 0.388439 -0.495315 10.6041 0.01462 0.18444
269.87802 2.80251 0.398171 -0.510627 10.6041 -0.608561 0.308517
305.36817 2.81155 0.386121 -0.471921 10.6041 -0.507178 0.252349
330.65165 2.85991 0.386873 -0.475683 10.6041 -0.208043 0.129282
344.24909 2.82105 0.38491 -0.471882 10.6041 -0.0911272 0.114589
354.76916 2.81114 0.385662 -0.492988 10.6041 0.0323606 0.108437
8.25472 2.5434 0.202653 -0.492541 10.6041 0.0251759 0.0781657
20.64682 2.61956 0.1968 -0.56083 10.6041 0.0784711 0.0501879
31.01873 2.71861 0.185303 -0.600173 10.6041 0.133648 0.030549
39.91115 2.71554 0.176928 -0.564599 10.6041 0.107609 0.055089
56.49673 2.67001 0.180621 -0.603379 10.6041 0.412484 0.167447
103.77240 2.74153 0.190032 -0.57725 10.6041 0.0957481 0.147789
129.74228 2.72765 0.189437 -0.591481 10.6041 0.0806587 0.106255
147.97323 2.67656 0.189272 -0.575588 10.6041 0.117655 0.122767
161.64343 2.67633 0.189005 -0.579274 10.6041 -0.00831978 0.119372
177.39174 2.68586 0.187442 -0.586829 10.6041 -0.0198615 0.131796
203.08145 2.66942 0.1905 -0.566777 10.6041 -0.0432112 0.137019
246.07048 2.68932 0.184111 -0.583323 10.6041 -0.238416 0.109733
267.08542 2.68656 0.186329 -0.596926 10.6041 -0.145521 0.100432
280.92808 2.66756 0.190192 -0.604086 10.6041 -0.249366 0.110324
308.45870 2.65429 0.182126 -0.571964 10.6041 -0.0736565 0.10894
323.29602 2.72148 0.179499 -0.572843 10.6041 -0.155127 0.0404981
332.21411 2.70482 0.190381 -0.591326 10.6041 -0.156104 0.0319755
342.74106 2.59472 0.199591 -0.537209 10.6041 -0.155465 0.0555794
353.96932 2.52705 0.203113 -0.49531 10.6041 -0.333651 0.0983737
5.37238 2.81153 0.240173 -0.619397 10.6041 0.0792092 0.0393574
16.16744 2.8929 0.235104 -0.625413 10.6041 0.0764758 0.0458828
26.07640 2.99682 0.230903 -0.622663 10.6041 0.14198 0.0613089
46.01711 2.87347 0.264926 -0.611622 10.6041 0.17364 0.139989
79.97459 2.82407 0.261212 -0.625073 10.6041 0.350738 0.13982
102.22083 2.79973 0.262393 -0.597333 10.6041 0.255801 0.133757
117.88091 2.80149 0.259189 -0.628247 10.6041 -0.0571804 0.148746
135.60765 2.81388 0.26475 -0.641607 10.6041 0.324094 0.121484
149.04809 2.79021 0.264682 -0.609886 10.6041 0.0155559 0.140999
160.39495 2.80933 0.269733 -0.648664 10.6041 -0.0129524 0.151569
172.48150 2.77363 0.255403 -0.667762 10.6041 0.136396 0.125207
187.28042 2.7629 0.262756 -0.611344 10.6041 -0.165102 0.113672
201.33622 2.76131 0.264672 -0.635275 10.6041 0.163303 0.135034
217.60708 2.80536 0.257378 -0.639704 10.6041 0.215648 0.134367
242.07238 2.7916 0.260282 -0.632082 10.6041 -0.305416 0.139958
267.97064 2.86196 0.249182 -0.642802 10.6041 -0.275136 0.136149
286.08986 2.83444 0.24828 -0.652312 10.6041 -0.458816 0.114695
300.78222 2.80047 0.248634 -0.638457 10.6041 -0.340309 0.104904
311.28912 2.75549 0.25714 -0.660044 10.6041 -0.21507 0.102344
324.97880 2.94699 0.242502 -0.653695 10.6041 -0.35309 0.123278
337.18051 2.97211 0.225221 -0.65152 10.6041 -0.0796444 0.0571273
350.93378 2.83714 0.236214 -0.620906 10.6041 -0.0603141 0.0307155
5.08255 2.80337 0.381658 -0.735245 10.6041 0.177031 0.114857
21.17492 2.91466 0.384279 -0.727344 10.6041 0.105824 0.138207
48.25817 2.87823 0.386225 -0.730371 10.6041 0.504912 0.225255
87.76568 2.81224 0.401559 -0.746805 10.6041 -0.176651 0.272971
115.70940 2.82126 0.388486 -0.76089 10.6041 -0.181869 0.179937
146.00569 2.80848 0.375555 -0.764838 10.6041 -0.00967043 0.19181
184.13546 2.90744 0.372653 -0.743894 10.6041 -0.43267 0.22445
217.06907 2.75701 0.366234 -0.741594 10.6041 -0.221404 0.231701
254.72214 2.77741 0.391516 -0.746224 10.6041 -0.0850938 0.200173
294.06944 2.8109 0.385929 -0.780089 10.6041 -0.221054 0.235251
332.09952 2.85491 0.392085 -0.716768 10.6041 -0.0936543 0.176012
353.08123 2.85935 0.378622 -0.724855 10.6041 -0.0694834 0.123396
10.83245 2.6742 0.183195 -1.66981 10.6041 0.0692929 0.0891558
24.23812 2.67392 0.188704 -1.11419 10.6041 0.0545483 0.0580326
32.82590 2.76638 0.184629 -1.01254 10.6041 0.204003 0.085067
63.86302 2.61927 0.183988 -1.15017 10.6041 0.201962 0.17688
164.93564 2.7317 0.190573 -1.45101 10.6041 -0.0302977 0.217843
274.97219 2.67325 0.187734 -0.976462 10.6041 -0.0656326 0.141314
317.52633 2.75926 0.186312 -1.15285 10.6041 -0.146145 0.141808
333.48092 2.71044 0.186268 -1.06344 10.6041 0.0301089 0.0542717
342.22655 2.63671 0.188331 -1.52602 10.6041 0.168602 0.0808834
353.93322 2.68636 0.184326 -1.8222 10.6041 -0.0847305 0.115573
5.31110 2.7769 0.273907 -1.38495 10.6041 -0.145514 0.0974333
16.29194 2.81489 0.249717 -1.25355 10.6041 0.0833711 0.0560915
25.71595 2.98037 0.229752 -1.12569 10.6041 0.169593 0.0997444
45.97362 2.79206 0.258293 -1.31382 10.6041 0.272393 0.11562
72.47229 2.76979 0.259385 -1.51496 10.6041 0.118556 0.151613
108.89922 2.79701 0.259231 -1.33112 10.6041 0.0431 0.298643
141.33436 2.84216 0.272645 -1.3499 10.6041 0.231928 0.137675
163.70321 2.81186 0.274856 -1.30452 10.6041 -0.0295583 0.14673
185.37018 2.80967 0.265515 -1.25191 10.6041 0.0267461 0.159911
214.61567 2.78849 0.268441 -1.33347 10.6041 0.0870715 0.182805
252.40051 2.72034 0.271383 -1.63038 10.6041 0.0185462 0.176053
280.14141 2.90407 0.255774 -1.32821 10.6041 0.0961363 0.165154
303.87447 2.77978 0.26102 -1.189 10.6041 -0.228615 0.142159
322.29334 2.79853 0.264189 -1.404 10.6041 -0.104514 0.124091
337.82508 2.90526 0.236066 -1.17522 10.6041 -0.125472 0.0715106
348.76514 2.79955 0.264777 -1.3142 10.6041 -0.0531918 0.0446285
13.83630 2.87581 0.38636 -1.59136 10.6041 -0.100172 0.16518
122.70579 2.90514 0.385435 -1.34145 10.6041 0.171526 0.255922
236.34165 2.86465 0.37566 -1.3552 10.6041 0.0126767 0.304294
310.39759 2.8826 0.394314 -1.37344 10.6041 -0.325731 0.279474
339.03231 2.81043 0.378146 -1.47188 10.6041 -0.208727 0.150423
5.27777 3.59454 0.245952 -0.218784 10.6041 0.0511268 0.0567556
15.92909 3.59232 0.250572 -0.220492 10.6041 0.1181 0.0665383
26.57648 3.55439 0.257913 -0.22286 10.6041 -0.0987349 0.0837053
37.23790 3.61191 0.276278 -0.230707 10.6041 -0.0192093 0.119121
48.33208 3.65321 0.288552 -0.235562 10.6041 0.364558 0.0968653
59.34869 3.60922 0.2811 -0.236788 10.6041 -0.0724256 0.125285
70.29676 3.73132 0.28086 -0.244955 10.6041 0.383826 0.0988174
81.01509 3.72354 0.272365 -0.235979 10.6041 0.0906635 0.124786
94.43834 3.61621 0.261615 -0.232633 10.6041 0.363537 0.0934185
118.72545 3.65412 0.256283 -0.239369 10.6041 0.353897 0.0823257
154.83783 3.70692 0.265014 -0.242554 10.6041 -0.0976375 0.108626
187.79780 3.79085 0.272912 -0.250534 10.6041 0.0210035 0.127069
223.98066 3.80553 0.283992 -0.253241 10.6041 -0.0340068 0.136369
263.94504 3.73343 0.274831 -0.246456 10.6041 -0.193045 0.164653
301.64796 3.6626 0.294325 -0.243591 10.6041 -0.361004 0.132202
323.06626 3.53478 0.269155 -0.224856 10.6041 -0.186677 0.128481
333.35429 3.59233 0.256319 -0.225093 10.6041 -0.158087 0.101202
344.07834 3.58338 0.251923 -0.219306 10.6041 -0.10079 0.0645162
354.70728 3.60944 0.247949 -0.218566 10.6041 0.00285165 0.0571805
5.62245 4.03984 0.403687 -0.339799 10.6041 0.0470818 0.100447
16.28953 4.12049 0.408594 -0.351181 10.6041 0.251311 0.0932028
27.03771 3.9869 0.409415 -0.351376 10.6041 0.322697 0.0941658
37.63141 3.97994 0.396169 -0.335099 10.6041 0.321751 0.125553
48.64463 4.13633 0.396451 -0.335051 10.6041 0.250937 0.139276
60.50950 4.11735 0.413267 -0.352689 10.6041 0.341578 0.113736
77.43066 4.05327 0.414491 -0.354331 10.6041 0.239653 0.106293
95.23361 4.03989 0.410003 -0.343084 10.6041 -0.161205 0.186346
119.08126 4.11293 0.413031 -0.356158 10.6041 0.141065 0.126012
149.64053 4.08885 0.416409 -0.361159 10.6041 0.101678 0.148114
191.26191 4.13981 0.391981 -0.341754 10.6041 0.111447 0.136142
230.20757 4.18476 0.429622 -0.374345 10.6041 -0.371198 0.208519
264.96319 4.1293 0.4391 -0.38912 10.6041 0.0557152 0.125606
285.56904 4.16894 0.431212 -0.378231 10.6041 -0.32379 0.135149
304.93845 4.06827 0.415412 -0.353863 10.6041 -0.0766788 0.134883
320.85350 4.06593 0.420983 -0.357535 10.6041 -0.0782862 0.144032
333.22710 3.99981 0.401046 -0.33616 10.6041 -0.167092 0.130196
343.80504 3.99239 0.39286 -0.334421 10.6041 -0.204259 0.125983
354.38929 4.02114 0.393529 -0.334588 10.6041 -0.0364136 0.0893972
5.47135 3.83353 0.257263 -0.367132 10.6041 0.00693138 0.0325433
16.09438 3.76305 0.252209 -0.364953 10.6041 0.087272 0.0340124
26.42321 3.66942 0.24679 -0.362193 10.6041 0.170162 0.0393496
37.04642 3.58717 0.252162 -0.369196 10.6041 0.26366 0.0727745
47.98934 3.67632 0.287791 -0.377406 10.6041 0.28674 0.107549
64.44114 3.82094 0.28776 -0.372521 10.6041 0.47386 0.073866
77.57562 3.81039 0.283625 -0.376041 10.6041 0.45042 0.0970223
88.20284 3.71794 0.273514 -0.3676 10.6041 0.345713 0.0893954
98.89137 3.79996 0.270596 -0.377145 10.6041 0.29542 0.0923348
111.17387 3.72272 0.263612 -0.372177 10.6041 0.275971 0.0965019
127.76214 3.74234 0.269651 -0.375504 10.6041 0.372968 0.086854
144.03070 3.70642 0.269671 -0.394797 10.6041 0.337962 0.0892684
161.94022 3.76325 0.26774 -0.377462 10.6041 0.190433 0.107669
181.62877 3.76312 0.273294 -0.392843 10.6041 0.0174803 0.099779
203.40460 3.69682 0.272455 -0.380097 10.6041 -0.133777 0.117863
232.58190 3.76007 0.27695 -0.38217 10.6041 -0.16055 0.11077
255.67497 3.68516 0.260791 -0.382781 10.6041 -0.246107 0.110439
277.50466 3.78576 0.2758 -0.384913 10.6041 -0.00921451 0.134881
297.79653 3.81826 0.28655 -0.408254 10.6041 -0.179358 0.113728
319.69555 3.58462 0.236877 -0.368889 10.6041 -0.194413 0.118869
330.05348 3.67002 0.240151 -0.369486 10.6041 -0.11886 0.0496108
340.36959 3.72571 0.24711 -0.364439 10.6041 -0.0609675 0.0377428
352.81652 3.81845 0.257338 -0.367768 10.6041 -0.0363415 0.029286
5.20478 3.94979 0.397752 -0.504114 10.6041 0.0409622 0.0890549
16.50617 3.98935 0.396308 -0.501315 10.6041 0.0499413 0.086866
26.85923 4.04751 0.394819 -0.499357 10.6041 0.166798 0.0891173
37.54123 4.08778 0.393006 -0.499687 10.6041 0.200614 0.0973993
48.35649 4.04592 0.388934 -0.481603 10.6041 0.2559 0.105491
61.29216 4.04401 0.400564 -0.50986 10.6041 0.213033 0.112751
75.26030 4.09941 0.42287 -0.529595 10.6041 0.13666 0.14538
91.14154 4.11193 0.410907 -0.520022 10.6041 0.0778052 0.171202
118.36391 4.06938 0.410838 -0.532219 10.6041 0.475538 0.124285
153.58821 4.02596 0.379924 -0.504526 10.6041 -0.137962 0.179284
193.44144 4.05173 0.381302 -0.494095 10.6041 0.06605 0.124123
227.48430 4.11021 0.412862 -0.539906 10.6041 -0.192334 0.163466
261.66581 4.13786 0.407378 -0.525217 10.6041 -0.264531 0.147559
290.68498 4.11689 0.396058 -0.496055 10.6041 -0.259074 0.146275
314.79562 4.00842 0.411225 -0.519297 10.6041 -0.198411 0.125525
331.63542 4.07976 0.402362 -0.505882 10.6041 -0.317473 0.105706
343.95516 3.97587 0.398688 -0.505082 10.6041 -0.101644 0.0847821
354.67692 3.99675 0.395907 -0.494432 10.6041 0.0899351 0.078757
5.55459 3.95234 0.282663 -0.632003 10.6041 0.0787965 0.0392041
16.46171 3.94007 0.273747 -0.639229 10.6041 0.0302982 0.0383737
26.87671 3.87067 0.257403 -0.634519 10.6041 0.0761432 0.0360484
36.19798 3.68389 0.241742 -0.621864 10.6041 0.178237 0.066638
63.63327 3.73921 0.283559 -0.614114 10.6041 0.171662 0.113116
91.12550 3.88028 0.280104 -0.618029 10.6041 0.173902 0.110484
109.56156 3.80079 0.270093 -0.636799 10.6041 -0.0302342 0.132991
131.89890 3.76247 0.275991 -0.630288 10.6041 0.342648 0.10418
151.12564 3.78063 0.283229 -0.646676 10.6041 0.113748 0.115129
165.03763 3.69353 0.273253 -0.668824 10.6041 -0.023495 0.118537
183.57453 3.71966 0.281247 -0.650101 10.6041 -0.00157981 0.125757
205.78008 3.70393 0.283634 -0.650263 10.6041 0.145221 0.129775
239.12795 3.70146 0.270109 -0.649205 10.6041 -0.126623 0.123021
261.45554 3.79775 0.267569 -0.651344 10.6041 -0.222095 0.10392
275.74969 3.79567 0.263135 -0.640514 10.6041 0.0560238 0.124762
287.83394 3.72755 0.271869 -0.672219 10.6041 -0.150521 0.119026
304.85365 3.77829 0.289723 -0.661014 10.6041 -0.297347 0.101156
323.56474 3.72505 0.24494 -0.632044 10.6041 -0.136018 0.0759954
333.13542 3.85497 0.25641 -0.641817 10.6041 -0.153913 0.0345073
343.52945 3.96633 0.275325 -0.641071 10.6041 -0.150506 0.0356473
354.28788 3.97366 0.283567 -0.62997 10.6041 -0.0328286 0.0394154
4.82772 4.16946 0.414689 -0.796503 10.6041 0.144509 0.0921526
15.87248 4.04943 0.400755 -0.767034 10.6041 0.261773 0.10774
27.33513 4.06625 0.409173 -0.749145 10.6041 0.189717 0.110576
37.58500 4.15474 0.407461 -0.727776 10.6041 0.101756 0.134151
51.62533 3.97766 0.41032 -0.738807 10.6041 0.140582 0.152441
73.35922 4.21701 0.407408 -0.773351 10.6041 0.300633 0.13854
96.65053 4.10894 0.427885 -0.806388 10.6041 0.342338 0.143944
115.28999 3.9975 0.427219 -0.831048 10.6041 -0.00876079 0.179501
131.79232 3.99827 0.407538 -0.807665 10.6041 -0.075202 0.167795
150.36991 4.08642 0.404713 -0.794351 10.6041 0.247526 0.112557
180.21299 4.03207 0.389276 -0.774683 10.6041 -0.257792 0.139193
207.96878 4.07035 0.390382 -0.799677 10.6041 -0.124568 0.165145
233.60578 4.09052 0.418698 -0.846566 10.6041 -0.0427096 0.165416
261.86750 4.15803 0.419588 -0.809454 10.6041 -0.285722 0.179772
300.77935 4.24921 0.37293 -0.753563 10.6041 -0.30796 0.168794
331.68813 4.03237 0.411358 -0.775158 10.6041 -0.138556 0.129607
352.53520 4.20181 0.399153 -0.764461 10.6041 0.118355 0.0775802
5.46676 3.74732 0.291523 -1.6362 10.6041 0.005892 0.0925955
17.08090 3.79482 0.286173 -1.35068 10.6041 0.00628953 0.0615553
26.53138 3.88083 0.264564 -1.22369 10.6041 0.0595455 0.0504385
40.37359 3.75046 0.264665 -1.27368 10.6041 0.149593 0.111152
72.13539 3.7918 0.276859 -1.54837 10.6041 0.108571 0.118607
109.56443 3.87291 0.28513 -1.86819 10.6041 0.544523 0.238439
149.18102 3.86877 0.283777 -1.45902 10.6041 -0.155542 0.165412
176.80561 3.81169 0.288916 -1.29807 10.6041 -0.348308 0.137935
214.84027 3.90887 0.290646 -1.38702 10.6041 -0.409167 0.195079
255.14498 3.83076 0.275961 -1.43161 10.6041 0.0493021 0.147324
286.25086 3.78558 0.27628 -1.19148 10.6041 -0.215604 0.151021
317.41633 3.83118 0.277786 -1.31489 10.6041 -0.247324 0.125897
333.78802 3.94152 0.268516 -1.1711 10.6041 -0.0865828 0.0524759
342.61157 3.81528 0.287829 -1.40886 10.6041 -0.0885532 0.0550809
354.15725 3.7017 0.293177 -1.54782 10.6041 -0.0635241 0.0828664
5.40719 4.20911 0.393126 -1.59886 10.6041 0.19314 0.0885936
19.40774 4.31462 0.377039 -1.70835 10.6041 0.252487 0.121625
55.71310 4.0537 0.393757 -2.14793 10.6041 -0.301709 0.204879
90.63677 4.1467 0.43676 -1.7991 10.6041 0.0253612 0.257143
118.79478 4.14696 0.426665 -1.79023 10.6041 0.00452792 0.191977
143.74995 3.98895 0.398245 -1.51478 10.6041 0.273953 0.1341
175.89690 4.0663 0.373545 -1.3609 10.6041 0.174142 0.136185
209.25851 4.18811 0.403047 -1.44221 10.6041 -0.0537419 0.186962
249.49504 4.07131 0.427946 -1.72938 10.6041 -0.298676 0.20148
281.93305 4.08602 0.41943 -2.02032 10.6041 0.0188647 0.21308
312.45910 4.15063 0.402418 -1.77711 10.6041 -0.28118 0.154406
336.80350 4.30297 0.388276 -1.75965 10.6041 -0.0955593 0.0954387
353.10014 4.28656 0.393284 -1.697 10.6041 -0.0931545 0.0863147
8.60250 5.98186 0.463134 -0.436902 10.6041 0.102381 0.121604
25.03757 6.00086 0.467317 -0.438873 10.6041 -0.0188744 0.155205
43.86903 5.83519 0.447679 -0.405148 10.6041 0.216617 0.112811
64.31451 5.77463 0.437751 -0.388926 10.6041 0.21921 0.0977145
91.99754 5.96274 0.451677 -0.413361 10.6041 0.360033 0.0856143
128.29900 6.05247 0.456161 -0.416813 10.6041 0.152528 0.158167
237.71732 5.89103 0.447724 -0.413679 10.6041 -0.0803973 0.176228
274.62440 5.92811 0.454031 -0.403674 10.6041 -0.458683 0.17374
307.18330 6.06687 0.471607 -0.454703 10.6041 -0.152424 0.105419
345.12915 5.91282 0.451834 -0.406817 10.6041 -0.0109414 0.0893116
7.44759 5.60991 0.407591 -0.537989 10.6041 0.107154 0.118916
23.97009 5.77978 0.446747 -0.590902 10.6041 0.0850094 0.111599
46.72459 5.73156 0.446074 -0.578683 10.6041 0.231968 0.106133
75.22879 5.83945 0.439927 -0.571031 10.6041 0.386031 0.0868836
107.47370 5.78547 0.440572 -0.580561 10.6041 0.457585 0.125493
217.48275 5.96252 0.425719 -0.56425 10.6041 -0.262862 0.186926
254.26377 5.84531 0.426945 -0.562609 10.6041 -0.224471 0.162575
288.09063 5.86309 0.446343 -0.592 10.6041 -0.302929 0.203322
325.50076 5.84381 0.45962 -0.603946 10.6041 -0.222589 0.119596
350.19066 5.55721 0.411136 -0.54758 10.6041 0.00435166 0.101593
5.24824 5.58591 0.383518 -0.768816 10.6041 0.00696017 0.0901595
16.14526 5.53082 0.380277 -0.770629 10.6041 0.179663 0.0953806
30.05393 5.68447 0.417488 -0.813947 10.6041 0.208626 0.122514
62.17738 6.04242 0.449757 -0.836458 10.6041 0.240605 0.127413
96.93586 5.97044 0.441947 -0.825188 10.6041 0.320318 0.117563
130.35134 5.68685 0.417885 -0.850154 10.6041 -0.0554102 0.176181
167.16731 5.61928 0.415625 -0.810759 10.6041 -0.0350744 0.196677
202.62481 5.90489 0.42863 -0.826349 10.6041 -0.119202 0.195571
243.18105 5.94951 0.446608 -0.870683 10.6041 -0.567327 0.215921
279.12728 5.89087 0.438287 -0.858338 10.6041 -0.302393 0.175484
312.64416 5.66428 0.421967 -0.832813 10.6041 -0.0755033 0.12652
340.04472 5.46025 0.368057 -0.777653 10.6041 -0.00326229 0.107491
353.19525 5.51354 0.38889 -0.792361 10.6041 -0.166671 0.077438
5.19162 5.92543 0.426687 -1.71004 10.6041 -0.114737 0.125838
16.67456 5.95086 0.422386 -1.93187 10.6041 0.181528 0.0757486
30.68349 5.70193 0.406162 -1.87753 10.6041 0.287659 0.0995628
71.99730 5.91085 0.455968 -2.06553 10.6041 0.187699 0.135272
110.31042 5.95884 0.459958 -1.89823 10.6041 0.192555 0.218142
142.86588 5.91615 0.469659 -1.65707 10.6041 0.0443024 0.256482
181.45401 5.59063 0.435104 -1.62081 10.6041 0.469828 0.191509
217.34581 6.02032 0.437568 -1.38531 10.6041 -0.605469 0.33134
253.58424 5.93008 0.436502 -1.97401 10.6041 -0.19344 0.199536
285.33298 6.00517 0.460761 -1.98649 10.6041 -0.207982 0.163604
319.71847 5.91501 0.436069 -2.10958 10.6041 0.212485 0.122316
340.03498 5.82936 0.400098 -1.68036 10.6041 -0.234214 0.0833714
352.20461 5.81549 0.422162 -1.93471 10.6041 0.0970322 0.102245
15.73233 7.40479 0.615449 -2.61065 10.6041 0.242551 0.162573
53.82492 6.98888 0.603464 -2.38356 10.6041 0.237649 0.221741
273.29342 7.14306 0.626857 -2.75507 10.6041 0.355816 0.278165
307.78090 6.87046 0.612411 -2.80396 10.6041 -0.179979 0.200663
346.42060 7.43609 0.618028 -3.11817 10.6041 0.133889 0.154548
17.28516 1.36679 0.10852 -0.139944 10.1998 0.129798 0.056638
36.52451 1.3595 0.0997291 -0.149211 10.1998 -0.0121261 0.0796433
48.69213 1.34826 0.0933342 -0.15243 10.1998 -0.0650657 0.0808073
62.82941 1.34015 0.0909908 -0.149641 10.1998 0.504813 0.0658236
298.70754 1.34713 0.0914016 -0.144653 10.1998 -0.159961 0.0854133
311.61914 1.34466 0.0929709 -0.159054 10.1998 -0.124905 0.0743217
324.61898 1.35722 0.0998266 -0.149438 10.1998 -0.130172 0.0748107
344.72980 1.36916 0.110002 -0.150133 10.1998 0.119229 0.0864193
28.58103 1.36689 0.110013 -0.280132 10.1998 -0.02502 0.108752
43.39651 1.35229 0.0953973 -0.294454 10.1998 0.196018 0.0574138
55.74089 1.34312 0.0922372 -0.259531 10.1998 0.328134 0.0894706
310.78950 1.35134 0.0928713 -0.279477 10.1998 -0.167878 0.0783341
323.73605 1.36259 0.10228 -0.294731 10.1998 -0.248583 0.0755714
5.64948 1.58525 0.12147 -0.135744 10.1998 -0.0606458 0.0437757
16.52760 1.59433 0.120994 -0.145201 10.1998 0.0630693 0.0401014
27.46152 1.60421 0.117918 -0.148405 10.1998 0.180689 0.0299165
37.65507 1.60027 0.11335 -0.152217 10.1998 0.115477 0.0316787
47.82576 1.59781 0.109986 -0.155441 10.1998 0.141207 0.0394003
58.39471 1.58925 0.107431 -0.154559 10.1998 0.0899433 0.0905602
127.17429 1.58949 0.118214 -0.160352 10.1998 0.210126 0.0794509
145.29236 1.56715 0.117058 -0.161098 10.1998 -0.0998786 0.0997401
164.35294 1.58538 0.116366 -0.170438 10.1998 0.254379 0.0670622
187.51362 1.57245 0.117677 -0.168185 10.1998 0.036488 0.11475
297.83779 1.56863 0.105699 -0.155284 10.1998 -0.20039 0.115827
308.43464 1.58655 0.108377 -0.157575 10.1998 -0.122991 0.0491585
318.58115 1.60607 0.11211 -0.157372 10.1998 -0.160578 0.0326173
329.16483 1.60655 0.116755 -0.153126 10.1998 -0.240773 0.0349216
339.78173 1.59441 0.120068 -0.150085 10.1998 -0.0701983 0.0529358
352.19372 1.58344 0.121541 -0.142421 10.1998 -0.0620141 0.0414971
5.58413 1.68868 0.145422 -0.170424 10.1998 0.0732246 0.057557
15.95172 1.68968 0.149063 -0.169978 10.1998 0.0725181 0.0606747
25.71813 1.72378 0.151091 -0.171763 10.1998 -0.135158 0.120338
41.46335 1.71716 0.166442 -0.160086 10.1998 0.308131 0.120157
90.68547 1.69089 0.174341 -0.162903 10.1998 0.277034 0.0830954
120.77721 1.68247 0.158769 -0.17683 10.1998 0.386755 0.0622165
145.39778 1.67679 0.152785 -0.173971 10.1998 0.144717 0.0819198
164.44003 1.6764 0.151942 -0.177809 10.1998 -0.0623008 0.103576
194.18055 1.65257 0.152236 -0.177797 10.1998 -0.000776718 0.0885842
330.90834 1.74714 0.135179 -0.173618 10.1998 -0.132423 0.128749
343.95115 1.71079 0.138698 -0.178743 10.1998 -0.20428 0.0912097
354.70614 1.7035 0.141328 -0.170046 10.1998 0.0735508 0.0664305
13.02322 1.70299 0.244465 -0.191201 10.1998 0.279535 0.0667114
40.10235 1.71575 0.2598 -0.197617 10.1998 0.261341 0.0889208
79.24923 1.7192 0.248131 -0.196998 10.1998 0.620482 0.0880599
334.62282 1.69874 0.265029 -0.187994 10.1998 -0.134158 0.111455
354.38299 1.70983 0.241687 -0.210462 10.1998 -0.0391029 0.151501
15.82693 1.50743 0.12524 -0.246792 10.1998 0.0553934 0.0797645
28.27037 1.57966 0.122736 -0.283912 10.1998 0.144641 0.0416775
38.02950 1.60703 0.11558 -0.302211 10.1998 0.178948 0.0268465
47.36785 1.59598 0.10988 -0.289109 10.1998 0.0881947 0.0453301
57.77420 1.59433 0.107752 -0.267865 10.1998 0.130596 0.105662
138.65808 1.59859 0.116994 -0.28677 10.1998 0.156402 0.0803841
153.16193 1.59449 0.115194 -0.293486 10.1998 0.142621 0.0949008
164.89210 1.56785 0.112573 -0.294486 10.1998 0.109925 0.0888719
183.13164 1.57672 0.116799 -0.293796 10.1998 0.0251794 0.106692
301.28814 1.56492 0.105853 -0.267014 10.1998 -0.233708 0.120597
312.47113 1.59457 0.110239 -0.28483 10.1998 -0.10565 0.0427178
321.88654 1.6024 0.115551 -0.298455 10.1998 -0.128623 0.0293169
331.85429 1.57986 0.122996 -0.285341 10.1998 -0.100567 0.0479517
345.02086 1.50106 0.125349 -0.248112 10.1998 -0.258086 0.0797813
5.32850 1.65721 0.14944 -0.293006 10.1998 -0.0683897 0.0510465
16.22233 1.66341 0.1439 -0.301617 10.1998 -0.0164725 0.0478498
26.50371 1.70324 0.137317 -0.307864 10.1998 0.257012 0.0482678
36.18068 1.73609 0.133437 -0.311715 10.1998 0.655418 0.0823347
126.12806 1.68269 0.16313 -0.301632 10.1998 0.135683 0.0976985
147.47819 1.66944 0.15569 -0.305962 10.1998 -0.0876587 0.115124
162.20951 1.67814 0.159315 -0.308194 10.1998 0.0396971 0.111685
175.74907 1.65894 0.151102 -0.313034 10.1998 -0.072587 0.106569
197.57476 1.65961 0.157458 -0.301661 10.1998 -0.336625 0.102589
327.32907 1.72468 0.135031 -0.31393 10.1998 -0.327082 0.163401
336.69120 1.68377 0.139089 -0.314633 10.1998 -0.0402555 0.0443012
350.53386 1.65979 0.146652 -0.298283 10.1998 -0.0280145 0.0316618
25.88474 1.55912 0.117951 -0.661248 10.1998 0.163241 0.0670756
34.43419 1.59796 0.115169 -0.552733 10.1998 0.142182 0.0332707
43.68918 1.61244 0.111666 -0.507494 10.1998 0.172023 0.0785696
145.76734 1.62419 0.11677 -0.545116 10.1998 0.374767 0.0933169
171.91541 1.54416 0.113766 -0.558952 10.1998 -0.137749 0.103465
254.19731 1.57342 0.111388 -0.572104 10.1998 0.2065 0.108481
274.05832 1.55534 0.115927 -0.574042 10.1998 -0.142873 0.0916918
308.85748 1.58832 0.111484 -0.50085 10.1998 0.0935139 0.0942523
323.10293 1.59483 0.113305 -0.536078 10.1998 -0.262938 0.0446202
331.46124 1.55885 0.116043 -0.629595 10.1998 -0.0620986 0.0435291
10.27806 1.67422 0.174693 -0.53293 10.1998 0.0220792 0.0694969
23.86512 1.65552 0.145254 -0.572243 10.1998 0.000613912 0.0531102
32.29712 1.70765 0.137584 -0.563833 10.1998 0.197259 0.124671
135.74115 1.67899 0.160049 -0.528666 10.1998 0.0275525 0.178554
162.44442 1.66234 0.152557 -0.542693 10.1998 -0.0320458 0.0961508
192.82379 1.66297 0.158661 -0.580834 10.1998 0.0476292 0.108338
274.47830 1.68764 0.149002 -0.620516 10.1998 -0.166888 0.118065
295.98541 1.65763 0.153349 -0.622786 10.1998 -0.0637423 0.107409
325.37471 1.7013 0.144389 -0.558375 10.1998 -0.336356 0.115614
336.19330 1.66333 0.14681 -0.578094 10.1998 -0.0152803 0.0414831
348.66831 1.67026 0.174675 -0.555064 10.1998 0.0542667 0.0553917
6.98373 1.57425 0.114406 -1.13479 10.1998 0.198784 0.0601381
20.75270 1.59106 0.113925 -0.983088 10.1998 -0.092953 0.0766788
333.17725 1.61403 0.1161 -0.936701 10.1998 -0.121317 0.0948042
342.98743 1.57316 0.114075 -0.982745 10.1998 0.117809 0.0563316
354.62822 1.58908 0.11479 -1.15331 10.1998 0.0558603 0.0723729
5.52077 2.0234 0.146895 -0.153039 10.1998 0.0144519 0.029808
16.50130 2.0326 0.145548 -0.155362 10.1998 0.0785324 0.0264633
27.07787 2.04187 0.143273 -0.160538 10.1998 0.130264 0.0265379
37.26059 2.02645 0.138996 -0.164275 10.1998 0.106946 0.0352559
47.44973 2.01948 0.136613 -0.164282 10.1998 0.329336 0.057255
59.46729 1.98712 0.134454 -0.159362 10.1998 -0.272546 0.211952
112.31061 1.98966 0.147823 -0.166996 10.1998 0.24106 0.0770047
135.46040 1.99981 0.146817 -0.170864 10.1998 0.108634 0.0838141
156.34872 1.97886 0.145513 -0.173778 10.1998 0.266575 0.0733567
183.39520 1.98431 0.144367 -0.177492 10.1998 0.0349802 0.0850855
210.70007 1.98591 0.148928 -0.171245 10.1998 -0.127259 0.128856
301.58321 1.93448 0.129211 -0.160286 10.1998 -0.0170134 0.154571
312.39378 2.00478 0.135596 -0.163683 10.1998 -0.294424 0.0753994
322.50190 2.02773 0.13906 -0.167438 10.1998 -0.0965065 0.0347301
332.85238 2.04206 0.142866 -0.163157 10.1998 -0.106931 0.0308691
343.41314 2.02331 0.145114 -0.157457 10.1998 -0.0187838 0.0312942
354.43513 2.0237 0.146986 -0.154157 10.1998 -0.0955899 0.0325955
5.38666 2.18777 0.191893 -0.182097 10.1998 0.00293917 0.0443714
16.12246 2.16072 0.198173 -0.18183 10.1998 0.00804255 0.0455674
26.66637 2.17113 0.201515 -0.177965 10.1998 0.2125 0.0510703
37.48903 2.1366 0.209091 -0.174721 10.1998 0.242538 0.061729
48.35907 2.12573 0.216902 -0.179444 10.1998 0.28868 0.080767
59.55954 2.13717 0.214473 -0.177194 10.1998 0.0712511 0.0988354
72.43332 2.14073 0.20348 -0.173466 10.1998 0.42536 0.0532168
85.98378 2.11626 0.203002 -0.177788 10.1998 0.451736 0.0510357
98.85012 2.12922 0.20059 -0.188483 10.1998 0.214882 0.0793078
109.69449 2.12026 0.193539 -0.188697 10.1998 0.200965 0.088152
122.32019 2.11876 0.190643 -0.184529 10.1998 0.333614 0.0693445
134.78431 2.10149 0.181424 -0.184799 10.1998 0.0383853 0.0977493
147.75722 2.14178 0.180408 -0.187104 10.1998 0.0736695 0.0903292
165.00669 2.13111 0.183704 -0.196907 10.1998 0.160882 0.0764931
191.35587 2.12913 0.180076 -0.195277 10.1998 -0.0941306 0.0903668
221.38803 2.14203 0.188278 -0.197735 10.1998 -0.304386 0.104012
255.62569 2.17441 0.215596 -0.191213 10.1998 -0.21955 0.148056
324.34854 2.25243 0.192733 -0.179604 10.1998 -0.0221449 0.101016
337.25041 2.22407 0.190675 -0.183328 10.1998 0.0447147 0.0633879
351.51877 2.20853 0.190953 -0.183321 10.1998 -0.00338804 0.0383895
5.64076 2.15874 0.308398 -0.236003 10.1998 0.0552195 0.0945899
15.88170 2.14229 0.300315 -0.227349 10.1998 0.0539578 0.0740562
27.50111 2.1485 0.305268 -0.230226 10.1998 0.0413396 0.105902
38.69648 2.13098 0.303118 -0.24418 10.1998 0.313602 0.0725278
53.75736 2.11736 0.307872 -0.235699 10.1998 0.103809 0.100105
76.09739 2.15718 0.316971 -0.249953 10.1998 0.466141 0.0824455
297.33817 2.15463 0.317833 -0.245372 10.1998 -0.0434758 0.134186
323.00095 2.18822 0.309828 -0.226227 10.1998 -0.162394 0.107186
336.42649 2.13557 0.321698 -0.241255 10.1998 0.159152 0.0935939
351.64139 2.15008 0.305946 -0.242834 10.1998 -0.073077 0.0784112
5.78899 1.91212 0.153261 -0.264514 10.1998 -0.033155 0.0661352
16.98029 1.95007 0.151668 -0.277932 10.1998 0.0437502 0.045566
27.39454 2.00816 0.148376 -0.298517 10.1998 0.0712709 0.0296723
37.49562 2.03474 0.141768 -0.306256 10.1998 0.160004 0.0264228
47.18772 2.02541 0.137748 -0.29632 10.1998 0.179854 0.0539101
114.36868 2.01813 0.146751 -0.295369 10.1998 -0.0053057 0.102382
136.22415 2.00839 0.144763 -0.303447 10.1998 0.387993 0.0639864
153.17912 1.99067 0.142693 -0.30504 10.1998 0.0212293 0.0897968
166.13370 1.97721 0.145027 -0.301062 10.1998 0.0517483 0.106315
183.35337 2.01449 0.146366 -0.299132 10.1998 -0.0564642 0.11005
256.23990 2.00862 0.143012 -0.345654 10.1998 -0.773884 0.13566
312.31299 2.03428 0.138227 -0.291735 10.1998 -0.188897 0.0615575
322.50935 2.03458 0.141915 -0.306378 10.1998 -0.126506 0.0281065
332.68508 1.99682 0.148382 -0.302286 10.1998 -0.172939 0.0324533
343.04015 1.94783 0.151919 -0.278798 10.1998 -0.101704 0.0463163
353.81920 1.91112 0.153129 -0.264581 10.1998 -0.11134 0.0698099
5.41418 2.13954 0.182314 -0.324723 10.1998 0.0621024 0.0297776
16.11535 2.15209 0.178358 -0.324752 10.1998 0.0659078 0.0312188
26.37881 2.23378 0.176282 -0.327592 10.1998 0.20115 0.0398701
36.10757 2.27991 0.178427 -0.319098 10.1998 0.200399 0.100228
62.28567 2.21399 0.222556 -0.299856 10.1998 0.176808 0.108487
91.35640 2.15788 0.209741 -0.305728 10.1998 0.294433 0.0797271
107.81175 2.12111 0.208298 -0.316467 10.1998 0.249741 0.0852235
122.12022 2.1049 0.199796 -0.326657 10.1998 0.199409 0.0828238
135.37274 2.12992 0.192709 -0.321122 10.1998 -0.201706 0.108981
145.95240 2.11313 0.193051 -0.337469 10.1998 0.057878 0.0890326
156.15850 2.11722 0.191123 -0.330856 10.1998 0.0113838 0.087888
167.10429 2.10221 0.190352 -0.330086 10.1998 0.00427523 0.0848064
179.11692 2.10347 0.188553 -0.325312 10.1998 0.159279 0.0900534
194.32322 2.07513 0.199049 -0.337401 10.1998 0.0257898 0.0973274
208.74743 2.10443 0.196453 -0.332137 10.1998 0.175598 0.0859351
227.36398 2.13991 0.206192 -0.317528 10.1998 -0.0598139 0.123319
267.11751 2.18948 0.182387 -0.342514 10.1998 -0.37776 0.170004
305.93540 2.25841 0.174395 -0.348476 10.1998 -0.149014 0.146099
326.72460 2.28705 0.165752 -0.329038 10.1998 -0.347884 0.0878006
336.85850 2.21749 0.169613 -0.333829 10.1998 -0.127391 0.0419283
351.09650 2.14112 0.177336 -0.326357 10.1998 -0.0341788 0.0248106
5.08007 2.13041 0.309667 -0.396866 10.1998 0.0756978 0.0830051
17.27743 2.16641 0.305765 -0.383705 10.1998 0.0478776 0.102124
41.96016 2.19025 0.316298 -0.37694 10.1998 0.3544 0.0709609
80.06570 2.1823 0.30762 -0.377983 10.1998 0.38048 0.119134
117.55604 2.11484 0.310623 -0.396639 10.1998 -0.163878 0.169927
148.85615 2.15331 0.30791 -0.402588 10.1998 0.0435184 0.145391
185.13527 2.17389 0.300003 -0.404397 10.1998 -0.344274 0.194108
223.72054 2.13547 0.304701 -0.391237 10.1998 -0.55406 0.232943
337.89498 2.19321 0.323255 -0.382282 10.1998 -0.195411 0.123328
354.67291 2.1284 0.309253 -0.394715 10.1998 -0.0631228 0.0803924
25.68358 1.94375 0.150912 -0.59397 10.1998 0.0485477 0.0546952
34.03598 2.01847 0.1435 -0.578801 10.1998 0.13168 0.0297515
43.42911 2.02657 0.138341 -0.515435 10.1998 0.21003 0.0580285
141.51828 1.98706 0.143325 -0.568002 10.1998 0.107849 0.0980986
166.32335 1.99162 0.145269 -0.558695 10.1998 0.0599243 0.106496
191.06080 1.9743 0.146894 -0.579816 10.1998 0.394992 0.0920524
264.84516 1.99468 0.144637 -0.596117 10.1998 -0.131486 0.094495
292.25374 1.95628 0.145811 -0.586579 10.1998 -0.371466 0.111536
319.91156 2.03631 0.140406 -0.538562 10.1998 -0.158364 0.0569257
328.86975 2.00772 0.146166 -0.586874 10.1998 -0.0250728 0.031452
337.20514 1.89467 0.153975 -0.559372 10.1998 -0.39792 0.13502
5.50990 2.08816 0.205118 -0.569964 10.1998 0.0346211 0.0421025
16.63417 2.10929 0.18822 -0.578311 10.1998 0.138849 0.0351466
26.52548 2.18398 0.172808 -0.597047 10.1998 0.0495043 0.0425362
37.20839 2.25747 0.171328 -0.587439 10.1998 0.110256 0.107239
62.47073 2.10711 0.198262 -0.737956 10.1998 0.0711478 0.110568
112.45958 2.1364 0.204646 -0.563728 10.1998 0.100978 0.133364
134.23885 2.1184 0.19769 -0.587917 10.1998 0.141417 0.105085
151.19038 2.11977 0.197957 -0.575408 10.1998 -0.0384936 0.107105
165.53553 2.09398 0.190458 -0.565155 10.1998 0.168335 0.0899935
183.69944 2.09835 0.204634 -0.592174 10.1998 0.148223 0.101312
204.09272 2.09674 0.205276 -0.57328 10.1998 -0.0171806 0.10536
230.40581 2.16155 0.199204 -0.570891 10.1998 -0.385581 0.177245
263.92441 2.16354 0.184323 -0.614148 10.1998 -0.209154 0.121068
282.98958 2.12926 0.191574 -0.628401 10.1998 -0.379335 0.100818
298.75280 2.06775 0.199004 -0.654427 10.1998 -0.159063 0.0916762
312.87793 2.08781 0.207691 -0.635228 10.1998 -0.223016 0.0835071
327.14229 2.23851 0.172565 -0.582676 10.1998 -0.150313 0.0723849
336.81152 2.13806 0.178205 -0.590735 10.1998 -0.0161398 0.0319415
349.80678 2.11109 0.197994 -0.577507 10.1998 -0.0622883 0.028591
8.47748 2.1965 0.313831 -0.609302 10.1998 -0.20753 0.117322
131.48637 2.16467 0.303212 -0.653881 10.1998 0.0774096 0.158036
156.14876 2.19036 0.314038 -0.662609 10.1998 -0.0693385 0.178602
194.70653 2.1473 0.296161 -0.688178 10.1998 0.135925 0.11264
351.91469 2.16281 0.320514 -0.657593 10.1998 -0.281703 0.138635
9.86908 1.9953 0.143423 -1.34646 10.1998 -0.0800591 0.0807517
23.82232 2.01691 0.143866 -1.0196 10.1998 0.0589381 0.0682012
35.79422 2.03415 0.141617 -0.968902 10.1998 0.148787 0.136641
265.89711 2.03703 0.14548 -1.0066 10.1998 -0.207461 0.194188
330.31590 2.03279 0.144354 -0.926613 10.1998 -0.0628537 0.0790805
339.24086 1.98217 0.14321 -1.08137 10.1998 -0.110957 0.0681173
352.23153 1.98647 0.142632 -1.31037 10.1998 0.0130041 0.0870621
11.22029 2.09693 0.203895 -1.25165 10.1998 -0.0278717 0.0645323
22.19730 2.17718 0.183298 -1.05438 10.1998 0.0187117 0.0637355
45.94033 2.12246 0.204704 -1.11044 10.1998 0.128113 0.0840625
66.70890 2.15078 0.197791 -1.14589 10.1998 0.11686 0.133467
149.19592 2.08521 0.206158 -1.21752 10.1998 0.0650039 0.134623
182.82453 2.0888 0.211754 -1.31129 10.1998 0.0574452 0.124838
262.11731 2.09109 0.202712 -1.32689 10.1998 -0.0104943 0.147765
285.24016 2.08923 0.202649 -1.10407 10.1998 0.0360523 0.125047
321.49006 2.1528 0.197374 -1.05293 10.1998 0.0759827 0.0922088
340.19999 2.14677 0.188855 -1.10161 10.1998 -0.0183127 0.0483487
350.82664 2.10534 0.207318 -1.33546 10.1998 0.0083249 0.060034
5.37108 2.68519 0.184896 -0.180281 10.1998 0.0116763 0.0350254
16.23974 2.6795 0.183302 -0.181784 10.1998 0.0143155 0.0332982
26.45140 2.65978 0.180468 -0.18397 10.1998 0.0840181 0.0434986
36.68030 2.63922 0.178407 -0.18822 10.1998 0.0433752 0.086911
57.42240 2.53115 0.18438 -0.177148 10.1998 0.0786783 0.120694
93.77887 2.59738 0.195044 -0.188859 10.1998 0.253842 0.0737312
127.53869 2.62679 0.190334 -0.184097 10.1998 0.32266 0.0649086
157.16519 2.63855 0.191681 -0.198219 10.1998 -0.0113255 0.0943609
190.03692 2.61088 0.187638 -0.196045 10.1998 -0.115091 0.115246
323.02386 2.64424 0.17767 -0.185876 10.1998 -0.140645 0.112677
333.26434 2.65685 0.180301 -0.185923 10.1998 -0.059704 0.0517021
343.75806 2.68668 0.183489 -0.180286 10.1998 -0.149684 0.0396479
354.59327 2.68311 0.185036 -0.180449 10.1998 -0.0756371 0.0349169
5.76527 2.84627 0.260952 -0.217643 10.1998 0.0281924 0.0527038
16.32913 2.7973 0.266002 -0.212808 10.1998 0.0725075 0.0530535
27.26437 2.76677 0.268896 -0.216362 10.1998 0.208214 0.051634
37.63359 2.77997 0.266032 -0.210971 10.1998 0.273676 0.0521684
48.39734 2.77052 0.261555 -0.206998 10.1998 0.247133 0.0665796
59.37161 2.76525 0.25822 -0.208778 10.1998 0.257047 0.0750758
70.22457 2.80099 0.254866 -0.212268 10.1998 0.249813 0.0753929
80.62605 2.78299 0.249736 -0.208659 10.1998 0.456992 0.058722
96.68777 2.7826 0.24401 -0.211906 10.1998 0.498534 0.055594
120.98634 2.80633 0.248803 -0.223847 10.1998 0.342191 0.0685136
153.07427 2.8345 0.249565 -0.23565 10.1998 0.0419558 0.102754
185.51571 2.80804 0.256624 -0.244342 10.1998 -0.151178 0.109172
222.58723 2.78762 0.26631 -0.243037 10.1998 -0.113908 0.126171
263.79722 2.76061 0.257863 -0.218092 10.1998 -0.580404 0.154738
294.19435 2.76687 0.276821 -0.220475 10.1998 -0.373527 0.0932353
320.67875 2.76874 0.277485 -0.209057 10.1998 -0.360416 0.0838705
333.15032 2.81157 0.272557 -0.215599 10.1998 -0.364693 0.0938095
343.85203 2.81197 0.267033 -0.210471 10.1998 -0.114714 0.0628445
354.50388 2.85925 0.265936 -0.221089 10.1998 -0.255481 0.0701794
5.64873 2.83325 0.383648 -0.308571 10.1998 0.131694 0.0996674
18.23306 2.85241 0.381133 -0.306579 10.1998 0.0884076 0.105262
29.82790 2.86247 0.379809 -0.309798 10.1998 0.0388802 0.116598
46.38895 2.80087 0.384287 -0.317305 10.1998 0.207393 0.102956
72.12736 2.86793 0.381611 -0.317673 10.1998 0.0553246 0.122873
106.13699 2.85722 0.394057 -0.326117 10.1998 0.555882 0.100086
219.89948 2.86793 0.377011 -0.320073 10.1998 -0.108496 0.178505
252.72710 2.90465 0.401404 -0.322464 10.1998 0.0335076 0.175474
289.46114 2.80504 0.399963 -0.322812 10.1998 -0.226327 0.172983
316.74998 2.79946 0.381365 -0.302705 10.1998 0.0849847 0.104006
337.40052 2.80918 0.385963 -0.309227 10.1998 -0.135714 0.113728
352.91164 2.81571 0.382131 -0.310418 10.1998 0.0439917 0.103552
5.46888 2.63882 0.195602 -0.311717 10.1998 0.14309 0.0358677
16.58879 2.67208 0.193862 -0.31858 10.1998 0.0951029 0.0340945
27.03547 2.69878 0.188019 -0.322477 10.1998 0.139608 0.0296287
36.71978 2.67482 0.181855 -0.325861 10.1998 0.153944 0.0405486
48.77028 2.60856 0.177672 -0.3235 10.1998 0.311101 0.122325
99.87972 2.65415 0.192672 -0.31922 10.1998 0.265784 0.0767745
128.61699 2.64995 0.191403 -0.318842 10.1998 0.335962 0.064942
148.88366 2.62139 0.190109 -0.317698 10.1998 -0.033104 0.099227
168.32812 2.61833 0.190753 -0.321307 10.1998 0.0856304 0.0872671
197.96838 2.615 0.191939 -0.32564 10.1998 0.0240557 0.102742
231.09852 2.71815 0.195167 -0.34073 10.1998 -0.444091 0.166651
268.88852 2.65834 0.190905 -0.361293 10.1998 -0.12967 0.102148
314.42148 2.63072 0.178778 -0.322963 10.1998 -0.318817 0.0825189
326.40661 2.67908 0.183732 -0.333204 10.1998 -0.0442793 0.0366096
336.29529 2.6857 0.189842 -0.323663 10.1998 -0.10433 0.0317591
350.27087 2.66102 0.19531 -0.313129 10.1998 -0.0468691 0.0300341
5.21582 2.92166 0.23925 -0.358115 10.1998 0.0785074 0.0429653
16.22513 2.91759 0.246932 -0.365969 10.1998 0.0920092 0.0460792
26.88570 2.92513 0.255145 -0.36312 10.1998 0.237835 0.0504992
36.96283 2.84 0.267561 -0.362746 10.1998 0.179849 0.0715418
51.63885 2.8117 0.275331 -0.347989 10.1998 0.405792 0.0636323
72.31530 2.82223 0.261867 -0.345421 10.1998 0.427738 0.0609932
89.64383 2.83938 0.258788 -0.345231 10.1998 0.336794 0.075706
104.17519 2.8135 0.253339 -0.353729 10.1998 0.34717 0.0703325
118.35876 2.84607 0.252069 -0.356445 10.1998 0.155353 0.0947896
135.79615 2.79928 0.254949 -0.36059 10.1998 0.243799 0.0792064
149.45489 2.84276 0.253263 -0.368302 10.1998 -0.0841826 0.119734
161.98548 2.83123 0.250247 -0.359038 10.1998 0.0410112 0.108231
176.74086 2.78728 0.256898 -0.364506 10.1998 0.107844 0.0939725
190.10510 2.82172 0.25931 -0.378198 10.1998 -0.0159166 0.104201
212.37597 2.78171 0.256713 -0.377501 10.1998 -0.0914631 0.116625
240.38960 2.80358 0.266814 -0.366956 10.1998 -0.0687162 0.103379
275.56520 2.89185 0.248767 -0.375033 10.1998 -0.29739 0.108798
319.85885 3.03012 0.238204 -0.379187 10.1998 -0.170878 0.106107
336.85048 3.01426 0.235369 -0.363514 10.1998 -0.0327145 0.06635
351.52393 2.93959 0.241504 -0.358294 10.1998 0.00587702 0.0336685
7.15074 2.86272 0.384802 -0.485335 10.1998 -0.10564 0.102247
25.78276 2.87108 0.377412 -0.466731 10.1998 0.336631 0.0654903
47.72950 2.86528 0.373835 -0.455236 10.1998 0.219809 0.0957939
79.98262 2.91218 0.379097 -0.466055 10.1998 0.129282 0.162541
113.33048 2.83006 0.391277 -0.47304 10.1998 0.177901 0.133356
144.67643 2.8719 0.38837 -0.493997 10.1998 -0.0185757 0.177002
224.91458 2.77568 0.385242 -0.499069 10.1998 -0.316461 0.253284
297.49458 2.80378 0.380862 -0.454223 10.1998 -0.241717 0.186435
329.70455 2.8624 0.38122 -0.461134 10.1998 -0.139862 0.12032
351.74853 2.85482 0.380076 -0.479556 10.1998 -0.159634 0.0909607
14.92068 2.53161 0.2021 -0.525025 10.1998 0.15354 0.0671879
27.73815 2.65923 0.19205 -0.606507 10.1998 0.157046 0.0360082
36.45891 2.67746 0.183199 -0.577173 10.1998 0.0708785 0.0500906
134.22281 2.64277 0.190126 -0.583694 10.1998 0.231829 0.0993209
166.06380 2.6109 0.188418 -0.609658 10.1998 0.0930666 0.107961
202.25296 2.65161 0.192291 -0.575611 10.1998 -0.0268148 0.134803
246.47040 2.65055 0.187969 -0.59922 10.1998 -0.241036 0.1515
272.35549 2.64557 0.189564 -0.632621 10.1998 -0.125454 0.0935874
311.57101 2.63114 0.184109 -0.569023 10.1998 -0.136562 0.106926
326.74408 2.67818 0.185834 -0.584891 10.1998 -0.100586 0.041228
335.63581 2.614 0.195709 -0.582413 10.1998 -0.00935985 0.0426156
348.08905 2.52875 0.203369 -0.504511 10.1998 -0.259811 0.0896178
5.26398 2.82696 0.242509 -0.608022 10.1998 -0.034697 0.0395356
15.96020 2.84335 0.234187 -0.615785 10.1998 0.0934845 0.041578
26.40871 3.0125 0.225104 -0.620987 10.1998 -0.000849172 0.0588296
45.35345 2.96754 0.243038 -0.637258 10.1998 0.438559 0.0844896
89.45074 2.89196 0.269012 -0.623956 10.1998 0.401293 0.0930305
119.11850 2.78453 0.258199 -0.601082 10.1998 0.235735 0.0946852
145.04770 2.77272 0.263712 -0.626002 10.1998 0.136015 0.101198
161.63827 2.77986 0.251362 -0.627305 10.1998 0.10617 0.100363
182.47846 2.77223 0.263204 -0.644942 10.1998 0.0225519 0.110729
206.87501 2.74079 0.268368 -0.622779 10.1998 -0.0898755 0.117582
239.16691 2.87135 0.258544 -0.614079 10.1998 -0.12863 0.129383
274.00217 2.83578 0.249324 -0.665915 10.1998 -0.453458 0.0995028
299.82137 2.79833 0.251868 -0.654088 10.1998 -0.319984 0.105581
317.20089 2.85389 0.256758 -0.65915 10.1998 -0.12087 0.0991151
330.33481 3.02868 0.223134 -0.634441 10.1998 -0.141204 0.0731315
340.31172 2.87479 0.22744 -0.633615 10.1998 0.0147439 0.039943
352.68761 2.80952 0.240315 -0.612291 10.1998 0.00049997 0.0339391
15.39767 2.89355 0.391229 -0.717932 10.1998 0.423499 0.0679473
51.69907 2.94353 0.402181 -0.732725 10.1998 0.0775368 0.181839
92.06744 2.81257 0.401434 -0.740731 10.1998 0.674695 0.0917888
125.52703 2.8934 0.404296 -0.77419 10.1998 -0.442036 0.250849
158.78723 2.90668 0.372887 -0.759324 10.1998 -0.117168 0.194888
197.46188 2.87296 0.378667 -0.775114 10.1998 0.0988903 0.158318
235.54868 2.85315 0.385803 -0.758403 10.1998 0.34059 0.130906
347.87820 2.90565 0.387531 -0.700193 10.1998 -0.11512 0.0966181
7.91776 2.81623 0.275222 -1.27546 10.1998 0.0763109 0.0678466
20.19390 2.90098 0.236056 -1.18929 10.1998 0.0580808 0.0602879
35.31592 2.87834 0.248325 -1.17695 10.1998 -0.0637202 0.106175
65.79561 2.80984 0.263245 -1.49393 10.1998 0.0330118 0.127813
143.68177 2.78172 0.268476 -1.1526 10.1998 0.0764736 0.145416
173.27733 2.75453 0.264756 -1.31685 10.1998 -0.185095 0.13422
207.33681 2.8257 0.277694 -1.23004 10.1998 0.217827 0.119907
255.03612 2.88143 0.253484 -1.5499 10.1998 -0.392929 0.228327
278.70844 2.82922 0.259159 -1.3662 10.1998 0.0457497 0.125782
307.34029 2.80073 0.271738 -1.26952 10.1998 -0.129018 0.10996
332.06514 2.8913 0.241971 -1.21391 10.1998 0.00139381 0.0734351
343.12723 2.82199 0.249372 -1.2158 10.1998 -0.0868313 0.0516797
354.59212 2.80156 0.278622 -1.28478 10.1998 -0.044697 0.0971339
4.92792 3.53402 0.256867 -0.226441 10.1998 0.00909785 0.0718643
16.07977 3.54557 0.265326 -0.229585 10.1998 0.0765629 0.0916151
26.41433 3.55665 0.274509 -0.237676 10.1998 -0.080779 0.12423
38.76976 3.60305 0.293416 -0.242324 10.1998 0.0938286 0.0920213
55.27788 3.62381 0.296223 -0.242247 10.1998 0.254069 0.0836062
76.38158 3.64783 0.278662 -0.245795 10.1998 0.292508 0.0675501
96.27181 3.67818 0.278519 -0.245363 10.1998 -0.0380433 0.105861
124.32038 3.62031 0.271401 -0.252022 10.1998 0.246959 0.121535
163.62586 3.72533 0.282729 -0.251906 10.1998 -0.136657 0.121891
273.18169 3.76268 0.291317 -0.257856 10.1998 -0.214695 0.152175
309.32444 3.5559 0.296254 -0.239778 10.1998 -0.312336 0.164617
334.73283 3.51432 0.261642 -0.227298 10.1998 -0.0767539 0.0920482
351.56576 3.51806 0.259002 -0.224577 10.1998 0.168548 0.0519336
5.40887 4.05461 0.404529 -0.338423 10.1998 3.35106e-05 0.0827323
16.12315 4.01977 0.409185 -0.345942 10.1998 0.314291 0.0846564
27.53549 3.99438 0.408185 -0.343673 10.1998 0.0940388 0.0844622
37.65542 3.94218 0.393378 -0.331881 10.1998 0.226174 0.110955
48.50374 4.05537 0.409489 -0.33701 10.1998 -0.0946389 0.134426
59.88383 4.09398 0.400502 -0.322876 10.1998 0.213834 0.11108
71.59165 4.13061 0.415415 -0.348218 10.1998 0.375281 0.0765158
85.87262 4.0153 0.419762 -0.347673 10.1998 -0.0571195 0.174045
104.29207 4.11475 0.421142 -0.351816 10.1998 0.182147 0.110181
128.25603 4.16693 0.421735 -0.352786 10.1998 0.503252 0.0792938
170.97061 4.17103 0.390402 -0.327795 10.1998 -0.192655 0.153734
209.44873 4.08987 0.429376 -0.375542 10.1998 -0.150663 0.197222
241.22554 4.24203 0.427642 -0.365887 10.1998 -0.141813 0.13907
274.21703 4.13597 0.435786 -0.370372 10.1998 -0.315948 0.128779
297.71059 4.08348 0.431503 -0.36226 10.1998 -0.229825 0.128785
319.50991 4.00624 0.397967 -0.321181 10.1998 -0.171718 0.128574
332.83519 4.02109 0.403253 -0.335177 10.1998 -0.203184 0.135252
344.04282 4.00268 0.396152 -0.324252 10.1998 0.0355288 0.0891898
354.56003 4.07962 0.405893 -0.339786 10.1998 0.0271083 0.107962
5.43253 3.74768 0.260762 -0.375851 10.1998 0.0373978 0.0375787
16.00076 3.71437 0.257648 -0.371534 10.1998 0.0653471 0.0396216
26.10980 3.60894 0.253365 -0.377615 10.1998 0.0499035 0.0520882
37.06063 3.527 0.266543 -0.373827 10.1998 0.197284 0.11106
56.25901 3.66679 0.296078 -0.377277 10.1998 0.241219 0.0742343
75.92321 3.80866 0.284931 -0.371355 10.1998 0.246178 0.0762712
90.93299 3.77949 0.284063 -0.381352 10.1998 0.249966 0.0812607
112.33869 3.73858 0.275149 -0.380318 10.1998 0.294239 0.0686309
138.47588 3.67316 0.281431 -0.38091 10.1998 0.111382 0.0970948
165.49256 3.70322 0.274374 -0.375194 10.1998 0.077052 0.0850444
189.79743 3.67784 0.283255 -0.395887 10.1998 0.0419381 0.0899197
223.34697 3.66905 0.280889 -0.37489 10.1998 -0.176937 0.129611
262.47254 3.72174 0.273064 -0.37454 10.1998 -0.160944 0.112864
292.21993 3.78541 0.286891 -0.40772 10.1998 -0.237468 0.10075
326.22842 3.55638 0.24391 -0.370211 10.1998 -0.211262 0.10007
336.97424 3.67383 0.250208 -0.381202 10.1998 -0.129254 0.0572682
351.21683 3.74277 0.260636 -0.376956 10.1998 -0.140436 0.0313996
5.38512 3.95255 0.396172 -0.5003 10.1998 0.0498468 0.0839981
16.54759 3.89531 0.403767 -0.510288 10.1998 -0.0354157 0.0996355
27.18186 4.00158 0.395563 -0.492573 10.1998 0.282301 0.0721741
39.34180 4.03254 0.38427 -0.488215 10.1998 0.332003 0.0693032
53.57138 4.03193 0.397626 -0.49754 10.1998 0.113569 0.0978344
75.79601 4.12268 0.402378 -0.503236 10.1998 0.452099 0.0686252
105.14291 4.08774 0.404418 -0.515159 10.1998 0.276031 0.0968645
133.27113 4.04315 0.41077 -0.534455 10.1998 0.28401 0.0968227
177.96356 4.18032 0.38316 -0.492217 10.1998 0.256107 0.111466
205.07248 4.00042 0.414951 -0.525797 10.1998 0.0303533 0.138921
242.42704 4.06439 0.39351 -0.481012 10.1998 -0.148224 0.138077
282.64982 4.1419 0.412831 -0.514609 10.1998 -0.29156 0.139391
318.82179 4.07277 0.42548 -0.532595 10.1998 -0.203253 0.101796
339.18299 3.98292 0.402114 -0.51595 10.1998 -0.126303 0.113622
352.84116 4.01169 0.39906 -0.504119 10.1998 -0.0249437 0.0743658
5.32196 3.86099 0.287164 -0.638865 10.1998 0.0734173 0.0408564
16.40819 3.88793 0.278299 -0.626341 10.1998 0.021175 0.0379933
26.51528 3.79562 0.2629 -0.642614 10.1998 0.128221 0.0397273
37.81516 3.64484 0.256183 -0.612718 10.1998 0.255115 0.0831915
75.70778 3.75555 0.293568 -0.638461 10.1998 0.450857 0.0929198
110.63013 3.80166 0.284403 -0.644727 10.1998 0.300586 0.0993069
144.90045 3.73285 0.285831 -0.660097 10.1998 -0.111614 0.106282
173.37932 3.78764 0.285106 -0.655051 10.1998 0.145767 0.100373
210.65997 3.65512 0.287434 -0.657654 10.1998 0.11351 0.116345
251.27580 3.73192 0.271771 -0.651497 10.1998 -0.229764 0.139703
278.57724 3.74172 0.27702 -0.651162 10.1998 -0.0430121 0.0939898
310.30019 3.66622 0.276144 -0.665295 10.1998 -0.287994 0.0877474
330.40356 3.71378 0.254483 -0.64048 10.1998 -0.158315 0.0499859
339.77199 3.84409 0.271905 -0.639794 10.1998 -0.121095 0.0395727
352.17768 3.87164 0.286161 -0.641565 10.1998 0.00338064 0.0347783
4.79927 4.26018 0.400716 -0.776407 10.1998 0.0484245 0.0960897
15.73703 4.19769 0.409379 -0.793396 10.1998 0.242801 0.0780425
27.17338 4.09038 0.407647 -0.766477 10.1998 0.0249318 0.10788
46.61860 4.11115 0.411609 -0.762544 10.1998 0.253094 0.0905475
83.15336 4.04358 0.407505 -0.769143 10.1998 0.115324 0.1277
113.11275 4.12114 0.414204 -0.771011 10.1998 0.0965134 0.124627
139.42069 3.98508 0.400994 -0.773797 10.1998 -0.0613049 0.158021
167.56323 3.99078 0.388752 -0.78881 10.1998 -0.00829656 0.128987
200.78733 4.07119 0.400502 -0.800276 10.1998 0.142732 0.117182
236.84643 3.99076 0.427872 -0.828256 10.1998 -0.599993 0.199453
272.33142 4.17039 0.411822 -0.805062 10.1998 -0.596868 0.197804
307.56718 4.13014 0.395172 -0.784029 10.1998 -0.228192 0.124662
341.35680 4.25808 0.416047 -0.781972 10.1998 -0.18235 0.101902
354.53139 4.20754 0.411121 -0.796572 10.1998 -0.0878935 0.0936287
14.11384 3.72109 0.292437 -1.4571 10.1998 0.130053 0.0538751
26.28071 3.85351 0.270836 -1.17258 10.1998 0.179863 0.0561623
48.94767 3.7409 0.277242 -1.32154 10.1998 -0.0336346 0.119711
158.04009 3.77585 0.291998 -1.41509 10.1998 -0.0455624 0.168256
266.59955 3.78198 0.277737 -1.50179 10.1998 -0.337294 0.167677
297.71575 3.74302 0.289498 -1.48222 10.1998 0.100837 0.10286
330.47346 3.81488 0.266433 -1.19783 10.1998 -0.313852 0.0755232
339.58005 3.7695 0.284418 -1.25979 10.1998 -0.0910101 0.0574563
351.41965 3.66001 0.292774 -1.78095 10.1998 0.0248133 0.0874726
6.95313 4.24985 0.379909 -1.38966 10.1998 -0.0031007 0.0960991
23.95686 4.4088 0.381812 -1.92134 10.1998 0.268048 0.0896413
68.41976 4.21596 0.425329 -1.92825 10.1998 -0.0239659 0.186465
104.81518 4.17538 0.439209 -1.7851 10.1998 -0.236754 0.208639
139.57252 4.18823 0.419707 -1.48465 10.1998 -0.00386315 0.197044
178.55829 4.18091 0.397672 -1.42844 10.1998 0.0167206 0.172997
209.80053 4.15144 0.421467 -1.62498 10.1998 0.191874 0.12516
247.27541 4.07838 0.418984 -1.73086 10.1998 -0.457244 0.295932
285.66186 4.17371 0.424083 -1.6501 10.1998 -0.329872 0.19744
319.99865 4.04591 0.40243 -1.65303 10.1998 -0.169693 0.115958
348.54226 4.33069 0.375097 -1.61137 10.1998 -0.080988 0.0782852
11.54842 5.95892 0.469464 -0.439605 10.1998 0.0774504 0.113898
29.68947 5.90404 0.469466 -0.451156 10.1998 -0.082027 0.121923
51.53939 5.7664 0.445298 -0.388928 10.1998 0.245013 0.0922816
73.15353 5.69052 0.447387 -0.395466 10.1998 0.163176 0.107887
102.64081 5.76688 0.460628 -0.423708 10.1998 0.215279 0.0966399
137.67202 5.96922 0.469975 -0.460746 10.1998 0.00530533 0.147682
283.62328 5.9076 0.465348 -0.423441 10.1998 -0.193446 0.11681
320.14934 5.87924 0.465477 -0.429166 10.1998 -0.223748 0.104584
349.72026 5.77409 0.460129 -0.400206 10.1998 -0.0914943 0.109791
17.44800 5.71743 0.459224 -0.603023 10.1998 0.0775522 0.100394
49.01287 5.73007 0.456479 -0.600956 10.1998 0.413535 0.0694137
87.11594 5.9222 0.454361 -0.60573 10.1998 0.369131 0.0716808
117.79898 5.87162 0.472273 -0.645867 10.1998 0.349085 0.128643
158.55805 5.98776 0.457234 -0.605554 10.1998 0.029331 0.151646
267.99528 5.83135 0.444212 -0.591555 10.1998 -0.472629 0.154739
301.50013 5.80624 0.461837 -0.616441 10.1998 -0.152555 0.151916
342.77830 5.5987 0.451709 -0.598152 10.1998 -0.170389 0.13422
6.37559 5.53849 0.396205 -0.812003 10.1998 0.0513152 0.0898513
25.41303 5.59936 0.429388 -0.84066 10.1998 0.112426 0.0919728
64.41822 5.85014 0.45765 -0.844229 10.1998 0.0740115 0.141705
95.58884 5.98055 0.469867 -0.892812 10.1998 0.297 0.123774
128.68059 5.78627 0.466482 -0.891138 10.1998 -0.130885 0.200687
203.04364 6.04983 0.46449 -0.88094 10.1998 0.0112543 0.151725
349.83485 5.49806 0.393503 -0.818696 10.1998 -0.200763 0.0960178
11.26865 5.89528 0.42962 -1.84477 10.1998 -0.0462211 0.0943194
36.02151 5.8143 0.447658 -2.3997 10.1998 -0.0349884 0.144159
72.94727 6.13293 0.481677 -2.56913 10.1998 -0.162325 0.239178
255.78383 5.76037 0.440237 -1.95673 10.1998 -0.322069 0.219937
289.63761 6.04023 0.473094 -2.22563 10.1998 -0.125249 0.197941
335.64670 5.91145 0.433561 -1.92996 10.1998 -0.050524 0.0973697
352.70251 5.90068 0.446192 -1.94132 10.1998 0.239287 0.0957501